Photodiode Viewing Angle (Degrees) - Plot 0	Lock-in Signal Amplitude (V) - Plot 0
-0.499344	0.00133515
0.000656128	0.00133563
0.500656	0.00133992
1.00065	0.00134564
1.50065	0.00135518
2.00063	0.00135518
2.50063	0.00135995
3.00063	0.00135804
3.50063	0.00135709
4.00063	0.00135709
4.50062	0.00135661
5.00062	0.00136853
5.49926	0.00137616
6.0006	0.00138045
6.5006	0.00138522
7.0006	0.00139237
7.5006	0.00139666
8.0006	0.00139905
8.50059	0.00140382
9.00037	0.00140858
9.50059	0.00140572
10.0006	0.00141145
10.5006	0.00141478
11.0006	0.00142051
11.5006	0.00141621
12.0006	0.00141907
12.5006	0.00142289
13.0006	0.0014329
13.5005	0.00144578
14.0005	0.00145674
14.5005	0.00146056
15.0005	0.0014658
15.4996	0.00146914
16.0005	0.00147439
16.5005	0.00147773
17.0005	0.0014844
17.5005	0.00149203
18.0005	0.00149346
18.5005	0.00150014
19.0005	0.00150777
19.5005	0.00151873
20.0005	0.00152207
20.5005	0.00152779
21.0005	0.00153113
21.5005	0.00154067
21.9992	0.00153876
22.5005	0.00154544
23.0005	0.00156451
23.5005	0.00158644
24.0005	0.00161219
24.5005	0.0016408
25.0004	0.00166655
25.5005	0.00167895
26.0005	0.00168944
26.5005	0.00169087
27.0004	0.00169469
27.5004	0.00169421
28.0004	0.00170184
28.5004	0.00171281
29.0004	0.00173188
29.5004	0.0017562
30.0004	0.00178052
30.5004	0.00180627
31.0004	0.00181199
31.5004	0.0018015
32.0004	0.00178338
32.5004	0.00177813
33.0004	0.00178481
33.5004	0.00180293
34.0004	0.00182963
34.5004	0.00186444
35.0004	0.00191308
35.5004	0.00194836
36.0004	0.00197412
36.5004	0.00199701
37.0004	0.00202991
37.4995	0.00205709
38.0004	0.00207235
38.5004	0.00208808
39.0004	0.00211431
39.5004	0.00214483
40.0003	0.00219013
40.5003	0.0022278
41.0003	0.0022731
41.5003	0.0023122
42.0003	0.00235654
42.5003	0.00239183
43.0003	0.00242044
43.5003	0.00247099
44.0003	0.00252248
44.5003	0.00258066
45.0003	0.00262643
45.5003	0.0026703
46.0003	0.00274183
46.5003	0.00279905
47.0003	0.00286104
47.5003	0.00291921
48.0003	0.00300886
48.5003	0.00311853
49.0003	0.00320245
49.5003	0.00329877
50.0003	0.00340082
50.5003	0.00350572
51.0003	0.0036297
51.5003	0.00377275
52.0003	0.00393775
52.5002	0.00409225
53.0002	0.00426963
53.5002	0.00444034
53.9992	0.00461963
54.5002	0.00478557
55.0002	0.00496486
55.5002	0.00516608
56.0002	0.00538352
56.5002	0.00562385
57.0002	0.00587752
57.5002	0.00618556
58.0002	0.00652602
58.5002	0.00687221
59.0002	0.00727084
59.5002	0.00765613
60.0002	0.0080319
60.5002	0.00844771
61.0002	0.00888258
61.5002	0.00944334
62.0002	0.0100098
62.5002	0.0106507
63.0002	0.0113488
63.5002	0.0121613
64.0002	0.0129567
64.5002	0.0139027
65.0001	0.0148659
65.5001	0.0158197
66.0001	0.0168992
66.5001	0.0180589
67.0001	0.0192338
67.5001	0.0204736
68.0001	0.021885
68.5001	0.0231363
69.0001	0.0245649
69.5001	0.0259725
70.0001	0.0273343
70.5001	0.0287572
71.0001	0.0297014
71.5001	0.0310632
72.0001	0.0326426
72.5	0.033972
73.0001	0.0353587
73.5001	0.0362418
74.0001	0.0368464
74.5001	0.0373747
75.0001	0.0376723
75.4991	0.0379508
76.0001	0.0377257
76.5001	0.0372126
77.0001	0.0366137
77.5	0.035145
78	0.0339682
78.5	0.0331213
79	0.0321581
79.5	0.0310289
80	0.030182
80.5	0.0290776
81	0.0276986
81.5	0.026539
82	0.0254346
82.5	0.0238858
83	0.0226403
83.5	0.021372
84	0.020054
84.5	0.0185014
85	0.0172845
85	0.0159494
-0.499382	0.00134564
0.000656128	0.0013497
0.500656	0.00135542
1.00065	0.00135494
1.50065	0.00136066
2.00063	0.00136472
2.50063	0.00136901
3.00063	0.00137473
3.50063	0.00138021
4.00063	0.00138403
4.50062	0.0013907
5.00062	0.00139619
5.50002	0.0014
6.0006	0.00140119
6.5006	0.00140954
7.0006	0.00141001
7.5006	0.00141621
8.0006	0.00142074
8.50059	0.00142813
9.00059	0.00143147
9.50059	0.00143004
10.0006	0.00143386
10.5006	0.00143719
11.0006	0.00144435
11.4995	0.00144387
12.0006	0.00145603
12.5006	0.00146533
13.0006	0.0014732
13.5005	0.00148249
14.0005	0.00148202
14.5005	0.0014875
15.0005	0.00149751
15.5003	0.00150133
16.0005	0.00150634
16.5005	0.00151087
17.0005	0.00151778
17.5005	0.00152636
18.0005	0.0015359
18.5005	0.00154687
19.0005	0.00154925
19.5005	0.0015607
20.0005	0.0015626
20.5005	0.00157405
21.0005	0.00157786
21.5005	0.00158549
22.0005	0.00159312
22.5005	0.00159598
23.0005	0.00160075
23.5005	0.00160886
24.0005	0.00161696
24.5005	0.00162268
25.0005	0.00163174
25.5005	0.00165082
26.0005	0.00166178
26.4993	0.00167752
27.0004	0.00168372
27.5004	0.00169755
28.0004	0.00171042
28.5004	0.0017252
29.0004	0.0017376
29.5004	0.00174952
30.0004	0.00176621
30.5004	0.00178147
31.0004	0.0017891
31.5004	0.00180579
32.0004	0.00180865
32.5004	0.00181199
33.0004	0.00179339
33.5004	0.00176192
34.0004	0.00172759
34.5004	0.00172616
35.0004	0.00175
35.5004	0.00179578
36	0.00182534
36.5004	0.0018344
37.0004	0.00182772
37.5004	0.00183154
38.0004	0.001853
38.5004	0.0019002
39.0004	0.00197603
39.5004	0.00205852
40.0003	0.00214626
40.5003	0.00221349
41.0003	0.00227834
41.5003	0.00231983
42.0003	0.00236179
42.4988	0.00239612
43.0003	0.00244047
43.5003	0.00247814
44.0003	0.00253107
44.5003	0.00258018
45.0003	0.00264455
45.5003	0.0027032
46.0003	0.00276805
46.5003	0.00282337
47.0003	0.0028825
47.5003	0.00295116
48.0003	0.00302888
48.5003	0.00312473
49.0003	0.0032015
49.5003	0.00329639
50.0003	0.00339271
50.5003	0.00350572
51.0003	0.00361015
51.5003	0.00373174
52.0003	0.00384761
52.4998	0.00399068
53.0002	0.0041261
53.5002	0.00431064
54.0002	0.00440791
54.5002	0.00445941
55.0002	0.00449374
55.5002	0.00457194
56.0002	0.00474551
56.5002	0.00507739
57.0002	0.00559619
57.5002	0.00634006
58.0002	0.0071831
58.5002	0.00800139
58.9996	0.0086785
59.5002	0.00916106
60.0002	0.00929075
60.5002	0.00921255
61.0002	0.00908095
61.5002	0.00910193
62.0002	0.00933462
62.5	0.00980765
63.0002	0.0107842
63.5002	0.0118771
64.0002	0.0128689
64.5002	0.0138016
65.0001	0.0148869
65.5001	0.0159303
66.0001	0.0170251
66.5001	0.0180227
67.0001	0.0191575
67.5001	0.0204355
68.0001	0.0219117
68.5001	0.0233804
69.0001	0.0250474
69.5001	0.0262223
70.0001	0.0278188
70.5001	0.0291692
71.0001	0.030449
71.5001	0.0315325
72.0001	0.0328143
72.5001	0.0344088
73.0001	0.0352519
73.5001	0.0359404
74.0001	0.0362723
74.5001	0.0366843
75.0001	0.0363085
75.499	0.0366938
76.0001	0.0367205
76.5001	0.0361769
77.0001	0.0355093
77.5	0.0346415
78	0.0333235
78.5	0.0321085
78.9999	0.0310098
79.5	0.0299073
80	0.0287668
80.5	0.027876
81	0.0265809
81.5	0.0253049
82	0.024088
82.5	0.022833
83	0.0216676
83.5	0.0205022
84	0.0193826
84.5	0.0177594
85	0.0165426
85	0.0153542
-0.499344	0.0013404
0.000656128	0.00134016
0.499557	0.00134898
1.00065	0.00134588
1.50065	0.00135375
2.00063	0.0013578
2.50063	0.00135685
3.00063	0.00135804
3.50063	0.00136567
4.00063	0.00137592
4.50062	0.0013814
5.00062	0.00138307
5.50062	0.00138188
6.0006	0.00138593
6.5006	0.00139428
7.0006	0.0013969
7.5006	0.00139881
8.0006	0.00140525
8.50059	0.00141025
9.00059	0.00141621
9.50059	0.00142265
10.0006	0.00142718
10.5006	0.00143076
11.0006	0.00143886
11.5006	0.00144411
12.0006	0.00145269
12.5006	0.00146056
13.0006	0.00146509
13.5005	0.00147439
14.0005	0.0014751
14.5005	0.00147868
15.0005	0.00148369
15.5005	0.00148702
16.0005	0.00148893
16.5005	0.00149418
17.0005	0.00149895
17.5005	0.00150491
18.0005	0.00151492
18.5005	0.00151873
19.0005	0.0015297
19.5005	0.001539
20.0005	0.00154138
20.5005	0.00154949
21.0005	0.00155926
21.5005	0.00156904
22.0005	0.00157429
22.5005	0.00158478
23.0005	0.00158573
23.5005	0.00159574
24.0005	0.00160385
24.5005	0.00161362
25.0005	0.00162721
25.4991	0.00164557
26.0005	0.00165988
26.5005	0.00167514
27.0004	0.00168467
27.5004	0.00169326
28.0004	0.00170041
28.5004	0.00171614
29.0004	0.00173331
29.5004	0.00175048
30.0004	0.00176621
30.5004	0.00177909
30.9992	0.00179148
31.5004	0.00180531
32.0004	0.00182009
32.5004	0.00183869
33.0004	0.00185586
33.5004	0.00187493
34.0004	0.00188351
34.5002	0.00190211
35.0004	0.00191546
35.5004	0.00194312
36.0004	0.00196649
36.5004	0.00199415
37.0004	0.00202848
37.5004	0.00205757
38.0004	0.00208284
38.5004	0.00210477
39.0004	0.00213148
39.5004	0.0021577
40.0003	0.00219537
40.5003	0.00223447
40.9998	0.00228311
41.5003	0.0023203
42.0003	0.00235845
42.5003	0.00239278
43.0003	0.00244381
43.5003	0.00248481
44.0003	0.00253011
44.5003	0.00258781
45.0003	0.00265123
45.5003	0.00271036
46.0003	0.00276805
46.5003	0.00282528
47.0003	0.00288107
47.5003	0.00294925
48.0003	0.00302936
48.5003	0.0031109
49.0003	0.00320627
49.5003	0.00329973
50.0003	0.00340463
50.5003	0.00350191
51.0003	0.00362398
51.5002	0.003747
52.0003	0.00388242
52.5002	0.00401977
53.0002	0.00418952
53.5002	0.00434402
54.0002	0.00452331
54.5002	0.00470069
55.0002	0.00491622
55.5002	0.00512794
56.0002	0.00535968
56.5002	0.00562289
57.0002	0.00591472
57.5002	0.0062485
57.9997	0.00654891
58.5002	0.00691798
59.0002	0.00723651
59.5002	0.00768188
60.0002	0.00806528
60.5002	0.00855929
61.0002	0.00907522
61.5002	0.00969511
62.0002	0.0102454
62.5002	0.0108309
63.0002	0.0115691
63.5002	0.012373
64.0002	0.0131951
64.4992	0.0141297
65.0001	0.0151711
65.5001	0.0161783
66.0001	0.0171357
66.5001	0.0182916
67.0001	0.0195314
67.5001	0.0208093
67.9995	0.0222474
68.5001	0.0237237
69.0001	0.0254403
69.5001	0.0267068
70.0001	0.0279924
70.5001	0.0291101
71.0001	0.0302888
71.5001	0.0313609
72.0001	0.032902
72.5001	0.0344203
73.0001	0.035538
73.5001	0.0363619
74.0001	0.0369418
74.4995	0.0376589
75.0001	0.0373805
75.5001	0.0375979
76.0001	0.0374682
76.5001	0.0367358
77.0001	0.0359957
77.5	0.0351679
78	0.0340044
78.5	0.0326922
79	0.0316622
79.5	0.0308686
80	0.0296365
80.5	0.028515
81	0.0273782
81.5	0.0260049
82	0.0247499
82.5	0.0233651
83	0.022091
83.5	0.0207063
84	0.0196573
84.4999	0.0181237
85	0.0167543
85	0.0156938
-0.499344	0.00133944
0.000656128	0.00134207
0.500656	0.00134922
1.00065	0.00135089
1.50065	0.00135375
2.00057	0.00135494
2.50063	0.00136185
3.00063	0.00136448
3.50063	0.00136591
4.00063	0.00136996
4.50062	0.00137568
4.99884	0.00138093
5.50062	0.00138808
6.0006	0.00138903
6.5006	0.00139309
7.0006	0.00140024
7.5006	0.00140453
8.00038	0.00141335
8.50059	0.00141216
9.00059	0.00141621
9.50059	0.00142003
10.0006	0.00142074
10.5006	0.00142551
11.0006	0.00143195
11.5006	0.00143433
12.0006	0.00144387
12.5006	0.00145436
13.0006	0.00145961
13.5005	0.00146604
14.0005	0.00146986
14.4998	0.0014782
15.0005	0.00148059
15.5005	0.00148488
16.0005	0.0014875
16.5005	0.00149322
17.0005	0.00149513
17.5005	0.00150371
18.0005	0.00151063
18.5005	0.00152326
19.0005	0.00153518
19.5005	0.00154234
20.0005	0.00155044
20.5005	0.00155283
20.9989	0.00156379
21.5005	0.00156618
22.0005	0.00157285
22.5005	0.00158001
23.0005	0.00158883
23.5005	0.00159622
24.0005	0.00160671
24.5005	0.00161672
25.0005	0.00162888
25.5005	0.00163604
26.0005	0.00165177
26.5005	0.00166369
27.0004	0.00167228
27.5004	0.00168277
28.0004	0.00169373
28.5004	0.00171471
29.0002	0.00172711
29.5004	0.00174189
30.0004	0.00174714
30.5004	0.00176097
31.0004	0.0017705
31.5004	0.00178481
32.0004	0.00179673
32.5004	0.00182248
33.0004	0.00183965
33.5004	0.00186253
34.0004	0.00186587
34.5004	0.00189496
35.0004	0.00192166
35.5004	0.0019455
36.0004	0.00197317
36.5004	0.00199415
37.0001	0.00201894
37.5004	0.00204183
38.0004	0.00205709
38.5004	0.00207235
39.0004	0.00210096
39.5004	0.00214197
40.0003	0.00217725
40.5003	0.00222303
41.0003	0.00226118
41.5003	0.00231268
42.0003	0.00234891
42.5003	0.0023966
43.0003	0.00243761
43.5003	0.00248243
44.0003	0.00252439
44.5003	0.0025797
45.0003	0.00262739
45.5003	0.00267507
46.0003	0.00273038
46.5003	0.00278093
47.0003	0.00285532
47.5003	0.00292017
48.0003	0.00300314
48.5003	0.00310327
49.0003	0.00320913
49.4995	0.00330545
50.0003	0.00340654
50.5003	0.00351335
51.0003	0.00363924
51.5003	0.00374795
52.0003	0.00387384
52.5002	0.00402454
53.0002	0.00420001
53.5002	0.00438693
54.0002	0.00456813
54.5002	0.00472644
55.0002	0.00481609
55.5002	0.00493053
56.0002	0.00502971
56.5002	0.00519183
57.0002	0.00540736
57.5002	0.00569347
58.0002	0.00608447
58.5002	0.0065079
59.0002	0.00693896
59.4995	0.00746539
60.0002	0.00797087
60.5002	0.00850302
61.0002	0.00903517
61.5002	0.00959784
62.0002	0.01013
62.5002	0.0106888
63.0002	0.011366
63.5002	0.0121461
64.0002	0.0129243
64.5002	0.0138054
65.0001	0.0147553
65.5001	0.0156633
66.0001	0.0165788
66.5001	0.017748
67.0001	0.0189744
67.5001	0.0202295
68.0001	0.0216275
68.5001	0.0227853
69.0001	0.0241395
69.4999	0.0252649
70.0001	0.0265657
70.5001	0.0281984
71.0001	0.0293084
71.5001	0.0306855
72.0001	0.0320628
72.5001	0.0333369
73.0001	0.0343478
73.5001	0.0350497
74.0001	0.0359805
74.5001	0.0366633
75.0001	0.0371668
75.5001	0.0374911
75.9997	0.0372736
76.5001	0.0366976
77.0001	0.0357478
77.5	0.0342867
78	0.0328639
78.5	0.0322154
79	0.0310899
79.5	0.0301095
80	0.0292856
80.5	0.0283109
81	0.0267049
81.5	0.0257379
82	0.0248681
82.4986	0.0231534
83	0.0218259
83.5	0.0207616
84	0.019642
84.5	0.0180322
85	0.0166503
85	0.0154677
-0.499344	0.00133038
0.000656128	0.00133181
0.500656	0.00133515
1.00065	0.00133658
1.50065	0.0013404
2.00063	0.00134326
2.50063	0.00134612
3.00063	0.00134278
3.50063	0.00134755
4.00063	0.00134946
4.50062	0.00136185
5.00062	0.00136853
5.50062	0.00137521
6.0006	0.00137997
6.5006	0.00138284
7.0006	0.00138522
7.50057	0.0013919
8.0006	0.00139523
8.50059	0.00140191
9.00059	0.00141049
9.50059	0.00141431
10.0006	0.00141717
10.5006	0.00142051
11.0006	0.00142766
11.5006	0.00143147
12.0006	0.00144196
12.5006	0.00145102
13.0006	0.00145818
13.5005	0.00146342
14.0003	0.00146771
14.5005	0.00147153
15.0005	0.00147486
15.5005	0.00147916
16.0005	0.00148297
16.5005	0.00148917
17.0005	0.00149251
17.5005	0.00150157
18.0005	0.00150586
18.5005	0.00151492
19.0005	0.00152589
19.5005	0.00153399
20.0005	0.00154115
20.4996	0.00155021
21.0005	0.00155783
21.5005	0.00156594
22.0005	0.0015688
22.5005	0.00157786
23.0005	0.00158644
23.5005	0.0015936
24.0005	0.00160599
24.5005	0.00162364
25.0005	0.00162936
25.5005	0.00164414
26.0005	0.00165606
26.5005	0.00166512
27.0004	0.00167371
27.5004	0.0016861
28.0004	0.00170279
28.5004	0.00171853
29.0004	0.00173665
29.5004	0.00175143
30.0004	0.00176478
30.4999	0.0017686
31.0004	0.00178338
31.5004	0.00179244
32.0004	0.0018139
32.5004	0.00183488
33.0004	0.00185586
33.5004	0.00186778
34.0004	0.00188542
34.5004	0.00190163
35.0004	0.00191737
35.5004	0.00194073
36.0004	0.00196888
36.5004	0.00199701
36.9993	0.00201942
37.5004	0.00204851
38.0004	0.00207044
38.5004	0.00209905
39.0004	0.00212194
39.5004	0.00215341
40.0003	0.00218488
40.5003	0.00222875
41.0003	0.00225927
41.5003	0.00229551
42.0003	0.00233175
42.5003	0.00236894
43.0003	0.00242044
43.5003	0.00246431
44.0003	0.00250532
44.5003	0.00255777
45.0003	0.00262548
45.5003	0.00267126
46.0003	0.00271417
46.5003	0.00277425
46.9995	0.00284292
47.5003	0.00291254
48.0003	0.00298978
48.5003	0.00307466
49.0003	0.00318147
49.5003	0.00328161
50.0003	0.00338937
50.5003	0.00350572
51.0003	0.00361826
51.5003	0.00372697
52.0003	0.00387575
52.5002	0.00401691
53.0002	0.00420097
53.4985	0.00436595
54.0002	0.00452331
54.5002	0.00467303
55.0002	0.00476554
55.5002	0.00489047
56.0002	0.00499538
56.5002	0.00518039
57.0002	0.00542834
57.5002	0.00573638
58.0002	0.00615123
58.5002	0.00656608
58.9994	0.00699237
59.5002	0.00747874
60.0002	0.00798041
60.5002	0.00846869
61.0002	0.00897604
61.5002	0.0094853
62.0002	0.010006
62.5002	0.0105744
63.0002	0.0112095
63.5002	0.0120431
64.0002	0.012827
64.5002	0.0137387
65.0001	0.0146924
65.5001	0.0156327
66.0001	0.0165826
66.5001	0.0177728
67.0001	0.0189553
67.5001	0.020363
68.0001	0.0217973
68.5001	0.023121
68.9993	0.024357
69.5001	0.025551
70.0001	0.0268403
70.5001	0.0281373
71.0001	0.0294114
71.5001	0.0308496
72.0001	0.0325015
72.5001	0.0339701
73.0001	0.0350688
73.5001	0.0356677
74.0001	0.0364687
74.5001	0.0364764
75.0001	0.0367129
75.4991	0.0369875
76.0001	0.0366976
76.5001	0.036236
77.0001	0.035435
77.5	0.0343287
78	0.0331538
78.5	0.0322649
78.9998	0.0311128
79.5	0.0300027
80	0.029049
80.5	0.0276147
81	0.0264894
81.5	0.0254632
82	0.0241834
82.5	0.0227758
83	0.0213376
83.5	0.0200731
84	0.0190917
84.5	0.0176364
85	0.0163118
85	0.0162345
-0.499924	0.00126935
0.000656128	0.00126839
0.500656	0.00126792
1.00065	0.00126482
1.50065	0.00125814
2.00063	0.00126673
2.50063	0.00127435
3.00056	0.00127936
3.50063	0.00127984
4.00063	0.00128985
4.50062	0.00130368
5.00062	0.00133777
5.50062	0.00136972
5.99915	0.00138546
6.5006	0.00137902
7.0006	0.00136352
7.5006	0.00134111
8.0006	0.00132585
8.50059	0.00132156
9.00059	0.00132466
9.50034	0.00133491
10.0006	0.00133992
10.5006	0.00135184
11.0006	0.00135828
11.5006	0.00136519
12.0006	0.0013733
12.5006	0.0013845
13.0006	0.00139285
13.5005	0.00140453
14.0005	0.00141025
14.5005	0.00142074
15.0005	0.00142003
15.5005	0.00142837
16.0003	0.00143052
16.5005	0.00144006
17.0005	0.00144196
17.5005	0.00145603
18.0005	0.00146104
18.5005	0.00147057
19.0005	0.00147939
19.5005	0.00148536
20.0005	0.00148583
20.5005	0.00149203
21.0005	0.00149394
21.5005	0.00150038
22.0005	0.00149871
22.4991	0.00150538
23.0005	0.00150824
23.5005	0.0015092
24.0005	0.00151778
24.5005	0.00152684
25.0005	0.00153542
25.5005	0.00154448
26.0005	0.00155879
26.5005	0.00156499
27.0004	0.00157834
27.5004	0.00158931
28.0004	0.00159837
28.5004	0.00161076
29.0004	0.00162698
29.5004	0.00164367
30.0004	0.00166035
30.5004	0.00167752
31.0004	0.00169183
31.5004	0.00170995
32.0004	0.00172902
32.4999	0.00175477
33.0004	0.00177432
33.5004	0.0018015
34.0004	0.0018282
34.5004	0.00184012
35.0004	0.00185681
35.5004	0.00187684
36.0002	0.00188781
36.5004	0.00190688
37.0004	0.00191928
37.5004	0.00194741
38.0004	0.00196697
38.5004	0.0019951
38.9989	0.0020199
39.5004	0.00204946
40.0003	0.00208236
40.5003	0.00213386
41.0003	0.00218917
41.5003	0.00221778
42.0003	0.00225927
42.4997	0.00232078
43.0003	0.00235607
43.5003	0.0023699
44.0003	0.00239183
44.5003	0.00245096
45.0003	0.00249673
45.5003	0.00254919
46.0003	0.00260831
46.5003	0.00267793
47.0003	0.00274374
47.5003	0.00282384
48.0003	0.00290777
48.5003	0.0029936
49.0003	0.00307466
49.5003	0.00317766
50.0003	0.00328256
50.4998	0.003397
51.0003	0.00352956
51.5003	0.00366403
52.0003	0.00381757
52.5002	0.00395873
53.0002	0.00410369
53.5002	0.00423434
54.0002	0.00440314
54.5002	0.00455096
55.0002	0.00474837
55.5002	0.00494006
56.0002	0.00515655
56.5002	0.00536254
56.9992	0.00563148
57.5002	0.00591758
58.0002	0.0061951
58.5002	0.00649264
59.0002	0.00681499
59.5002	0.00720504
60.0002	0.00754741
60.5002	0.00800902
61.0002	0.00850683
61.5002	0.00905234
62.0002	0.00955969
62.5002	0.0101624
63.0002	0.0107957
63.5002	0.01157
63.9995	0.0123101
64.5002	0.0131989
65.0001	0.0141144
65.5001	0.0149842
66.0001	0.0159417
66.5001	0.0170823
67.0001	0.0182115
67.5001	0.0194551
68.0001	0.0207368
68.5001	0.0220338
69.0001	0.0234452
69.5001	0.024521
70.0001	0.0259973
70.498	0.0273019
71.0001	0.0286905
71.5001	0.0300027
72.0001	0.0313113
72.5001	0.0324824
73.0001	0.0333483
73.5001	0.033951
73.9998	0.0344241
74.5001	0.0348361
75.0001	0.0350802
75.5001	0.0352099
76.0001	0.0349429
76.5001	0.0346301
77.0001	0.0338824
77.5	0.0325739
78	0.0314715
78.5	0.0304147
79	0.0295755
79.5	0.0285379
80	0.0275499
80.5	0.0265466
81	0.0254098
81.5	0.0241472
82	0.0229455
82.5	0.0216523
83	0.0205957
83.5	0.0195657
84	0.0184327
84.5	0.016987
85	0.0158693
85	0.0147591
-0.499344	0.00128389
0.000656128	0.00128508
0.500656	0.0012827
1.00065	0.00127865
1.50056	0.00128389
2.00063	0.00128556
2.50063	0.00128699
3.00063	0.00127793
3.50063	0.00128485
4.00063	0.00128914
4.4993	0.00132061
5.00062	0.00136257
5.50062	0.00140167
6.0006	0.00140763
6.5006	0.00139619
7.0006	0.00137711
7.5006	0.00135279
8.00021	0.0013373
8.50059	0.00133158
9.00059	0.0013392
9.50059	0.00134421
10.0006	0.00135685
10.5006	0.001364
11.0006	0.00137401
11.5006	0.00138188
12.0006	0.00139452
12.5006	0.00140572
13.0006	0.00141836
13.5005	0.00142384
14.0005	0.00143171
14.5001	0.00143338
15.0005	0.00143815
15.5005	0.00144602
16.0005	0.00145174
16.5005	0.00145579
17.0005	0.00146437
17.5005	0.00147486
18.0005	0.00148083
18.5005	0.00148774
19.0005	0.00149847
19.5005	0.00150324
20.0005	0.00150753
20.5005	0.0015092
20.9994	0.00151277
21.5005	0.00151397
22.0005	0.00151587
22.5005	0.00151683
23.0005	0.00152064
23.5005	0.00152922
24.0005	0.00153757
24.5005	0.00154115
25.0005	0.00154997
