Photodiode Viewing Angle (Degrees) - Plot 0	Lock-in Signal Amplitude (V) - Plot 0
-0.00386047	0.000103295
0.12114	0.000104383
0.246155	0.000104301
0.371155	0.000104726
0.49617	0.000103571
0.62117	0.000103944
0.74617	0.00010407
0.871185	0.000104003
0.996185	0.000103415
1.12119	0.000103944
1.2462	0.000101187
1.37091	0.00010524
1.4962	0.000105307
1.62122	0.000107237
1.74622	0.00010191
1.87122	0.000100844
1.99623	0.000104122
2.12123	0.0001015
2.24625	0.000103899
2.37125	0.000103131
2.49625	0.000103079
2.62126	0.000101455
2.74626	0.000100956
2.87126	9.79E-05
2.99628	0.000101082
3.12128	0.00010103
3.24628	9.93E-05
3.37129	0.000101038
3.49629	9.97E-05
3.62131	0.000103519
3.74631	0.000100479
3.87131	0.000101395
3.99632	0.000103295
4.12132	0.000103631
4.24632	0.000101291
4.37103	0.000103735
4.49634	0.00010033
4.62134	0.000102036
4.74635	0.000101105
4.87135	0.000102215
4.99635	0.000102565
5.12137	0.000103713
5.24637	0.000101381
5.37138	0.000101887
5.49638	0.000100784
5.62138	0.00010106
5.7464	0.000101574
5.8714	0.000100337
5.9964	0.000101991
6.12141	0.000101932
6.24641	0.000102327
6.37143	0.000101895
6.49643	9.87E-05
6.62143	0.000100419
6.74644	0.000100516
6.87144	0.000105344
6.99646	0.000101597
7.12147	9.95E-05
7.24647	9.73E-05
7.37147	0.000104279
7.49648	0.000100434
7.62148	0.000101172
7.74648	0.000101082
7.8715	0.000100561
7.9965	0.000101306
8.1215	0.000101842
8.24651	9.75E-05
8.37151	0.000101053
8.49653	0.000105978
8.62153	9.97E-05
8.74653	0.000103608
8.87154	0.000101641
8.99654	9.95E-05
9.12155	0.00010521
9.24605	0.00010106
9.37072	0.00010176
9.49657	9.94E-05
9.62157	0.000101664
9.74658	0.000102535
9.87159	9.79E-05
9.99659	0.000101626
10.1216	0.000100151
10.2466	0.000102856
10.3716	0.000103906
10.4966	9.92E-05
10.6216	0.000100166
10.7466	9.95E-05
10.8716	0.000101172
10.9966	9.94E-05
11.1216	9.88E-05
11.2466	0.00010264
11.3717	0.000103787
11.4967	9.65E-05
11.6217	9.86E-05
11.7467	0.000101552
11.8717	9.97E-05
11.9967	9.96E-05
12.1217	0.000104107
12.2467	0.000100054
12.3717	9.96E-05
12.4967	0.000100866
12.6217	0.000101462
12.7467	0.000100106
12.8717	9.91E-05
12.9967	9.55E-05
13.1217	0.000100524
13.2467	9.89E-05
13.3717	9.97E-05
13.4967	0.000104659
13.6217	0.000101932
13.7468	0.000103377
13.8718	0.000103236
13.9968	0.000102565
14.1218	0.000103444
14.2468	0.000103519
14.3718	0.000102781
14.4968	0.000104174
14.6218	0.000103683
14.7468	0.000101001
14.8718	0.000100002
14.9968	0.000101887
15.1218	0.000103742
15.2468	0.000101641
15.3718	0.000100837
15.4968	0.000102342
15.6218	9.86E-05
15.7468	0.000102662
15.8719	9.66E-05
15.9969	9.86E-05
16.1219	0.000100181
16.2469	0.000101522
16.3719	0.000100188
16.4969	0.000101708
16.6219	9.78E-05
16.7469	0.000101217
16.8719	9.73E-05
16.9969	0.000101179
17.1219	0.000100025
17.2469	0.000100434
17.3719	0.000102737
17.4969	9.96E-05
17.6219	0.000103817
17.7469	0.000104189
17.872	0.000101448
17.997	0.000101172
18.122	0.000101939
18.247	0.000101716
18.372	0.000101932
18.497	0.000103198
18.622	0.000101544
18.7469	0.000104212
18.872	0.000100323
18.997	0.000101351
19.122	0.000102208
19.247	0.000100367
19.372	0.000101842
19.497	0.000100404
19.622	9.90E-05
19.747	0.000104085
19.872	0.000101462
19.997	0.000100829
20.1221	9.94E-05
20.2471	0.000101604
20.3721	9.88E-05
20.4971	0.000103973
20.6221	0.000100419
20.7471	9.83E-05
20.8721	0.0001003
20.9971	0.000101582
21.1221	0.000101291
21.2471	0.000105076
21.3721	0.000103631
21.4971	0.000104554
21.6221	0.000105635
21.7471	0.00010416
21.8721	0.000102997
21.9971	0.000103102
22.1221	0.000103966
22.2471	0.000104271
22.3722	0.000104353
22.4972	0.000104309
22.6222	0.000104249
22.7472	0.000103541
22.8722	0.000104554
22.9972	0.000106447
23.1222	0.000106819
23.2472	0.000106559
23.3722	0.000101671
23.4972	0.000103795
23.6222	0.000105814
23.7472	0.000105836
23.8722	0.000104249
23.9972	0.000101597
24.1222	0.000104383
24.2472	0.000101611
24.3722	0.000103415
24.4973	0.000104167
24.6223	0.000105441
24.7473	0.000103742
24.8723	0.000102394
24.9973	0.000104726
25.1223	0.000102781
25.2473	0.00010369
25.3723	0.000102513
25.4973	0.00010416
25.6223	0.000106566
25.7473	0.000107266
25.8722	0.000105784
25.9972	0.000105799
26.1222	0.000105069
26.2472	0.000106991
26.3723	0.000104756
26.4973	0.000107274
26.6224	0.000104636
26.7474	0.00010594
26.8724	0.000107691
26.9974	0.000104689
27.1224	0.000105463
27.2474	0.000101269
27.3724	0.000101902
27.4974	0.000103645
27.6224	0.000103795
27.7474	0.000103772
27.8724	0.000104085
27.9974	0.000103459
28.1224	0.000104435
28.2474	0.000104502
28.3723	0.000102967
28.4974	0.00010486
28.6224	0.000104398
28.7474	0.000104808
28.8724	0.000105098
28.9975	0.000106432
29.1225	0.000104145
29.2475	0.000106946
29.3725	0.000106328
29.4975	0.00010226
29.6225	0.000104949
29.7475	0.000105493
29.8725	0.000106179
29.9975	0.000105322
30.1225	0.000103362
30.2475	0.000105069
30.3725	0.000103221
30.4975	0.000103519
30.6225	0.00010679
30.7475	0.000103102
30.8725	0.000107214
30.9975	0.000104934
31.1226	0.000106372
31.2476	0.000105501
31.3726	0.00010907
31.4976	0.000107341
31.6226	0.000106931
31.7476	0.000106335
31.8718	0.00011082
31.9976	0.000107058
32.1226	0.000110053
32.2476	0.000108213
32.3726	0.000108578
32.4976	0.000110515
32.6226	0.000109412
32.7476	0.000107974
32.8726	0.000109204
32.9976	0.000111059
33.1226	0.00011234
33.2476	0.00010632
33.3727	0.000105814
33.4977	0.000106805
33.6227	0.000108488
33.7477	0.000106663
33.8727	0.000107557
33.9977	0.000106439
34.1227	0.000109368
34.2477	0.000103914
34.3727	0.000108012
34.4977	0.000107922
34.6227	0.000111074
34.7477	0.000111349
34.8727	0.00011053
34.9977	0.000110463
35.1227	0.000109718
35.2477	0.000109427
35.3727	0.000108168
35.4977	0.000109964
35.6228	0.00011015
35.7478	0.000109479
35.8728	0.000109248
35.9978	0.000106626
36.1228	0.000109874
36.2478	0.000110835
36.3728	0.000110567
36.4978	0.000111543
36.6228	0.000107468
36.7478	0.000109442
36.8723	0.000109353
36.9973	0.000109032
37.1216	0.000109725
37.2478	0.000107453
37.3715	0.000109606
37.4978	0.000109308
37.6228	0.000108667
37.7479	0.000108667
37.8729	0.000109569
37.9979	0.000107892
38.1229	0.000114032
38.2479	0.000111171
38.3729	0.000109002
38.4979	0.000111998
38.6229	0.000110351
38.7479	0.00011196
38.8729	0.000108026
38.9979	0.000113734
39.1229	0.000110426
39.2479	0.000113138
39.3729	0.000112206
39.4979	0.000114643
39.6229	0.000112206
39.7479	0.000112102
39.8729	0.000113912
39.998	0.000110433
40.123	0.000113681
40.248	0.000113018
40.373	0.000115395
40.498	0.000111625
40.623	0.000113287
40.748	0.000113644
40.8728	0.000117504
40.998	0.00011383
41.123	0.000115656
41.248	0.000114263
41.373	0.000114747
41.498	0.000115537
41.623	0.000116565
41.748	0.00011538
41.873	0.000115656
41.998	0.000115999
42.123	0.000116319
42.2481	0.000115246
42.3731	0.000115119
42.4981	0.000112832
42.6231	0.000114337
42.7481	0.000113242
42.8731	0.000112713
42.9981	0.000114598
43.1231	0.000114382
43.2481	0.000114233
43.3731	0.000113443
43.4981	0.000115321
43.6231	0.000114695
43.7481	0.000112445
43.8731	0.000113257
43.9981	0.000115194
44.1231	0.000115216
44.2482	0.000113659
44.3732	0.000116446
44.4982	0.000115142
44.6232	0.000114583
44.7482	0.000115417
44.8732	0.000111782
44.9982	0.000112415
45.1232	0.00011158
45.2482	0.00011094
45.3732	0.000108138
45.4982	0.000109695
45.6232	0.000112609
45.7482	0.000110962
45.8732	0.000111275
45.9982	0.00011053
46.1232	0.000112214
46.2482	0.000114404
46.3733	0.000113242
46.4983	0.000114434
46.6233	0.000114203
46.7483	0.000114352
46.8733	0.000114397
46.9983	0.000114382
47.1233	0.000111402
47.2483	0.000113287
47.3733	0.000110232
47.4983	0.000109926
47.6233	0.000111633
47.7483	0.000111603
47.8733	0.000110277
47.9983	0.000111215
48.1233	0.00011009
48.2483	0.000109852
48.3733	0.000109666
48.4983	0.000111595
48.6233	0.000108116
48.7484	0.000112951
48.8734	0.000111364
48.9984	0.000109517
49.1218	0.000107937
49.2469	0.000112981
49.3734	0.000109077
49.4984	0.000110791
49.6234	0.000111089
49.7484	0.000108794
49.8734	0.00010866
49.9984	0.000106164
50.1234	0.000106283
50.2484	0.000108541
50.3734	0.000107542
50.4984	0.000108734
50.6234	0.000103906
50.7484	0.000106663
50.8735	0.000109181
50.9985	0.000104011
51.1235	0.000106417
51.2484	0.000104011
51.3735	0.000102841
51.4985	0.000105091
51.6235	0.000103392
51.7485	0.000103511
51.8735	0.000102737
51.9985	0.000103422
52.1235	0.000106641
52.2485	0.000106097
52.3735	0.000104428
52.4985	0.000108317
52.6235	0.000105389
52.7485	0.000108175
52.8735	0.000106901
52.9985	0.00010188
53.1236	0.000104353
53.2486	0.000104629
53.3736	0.000103847
53.4986	0.000103653
53.6236	0.000102975
53.7486	0.000102327
53.8736	0.000101187
53.9986	0.000102707
54.1236	9.87E-05
54.2486	0.000102155
54.3736	0.000105247
54.4986	0.000100628
54.6236	0.000102602
54.7486	0.000103742
54.8736	9.97E-05
54.9986	9.99E-05
55.1236	0.000100568
55.2486	0.000102424
55.3737	9.98E-05
55.4987	0.000100658
55.6237	0.000104771
55.7487	9.93E-05
55.8737	0.00010185
55.9987	9.88E-05
56.1237	0.000100092
56.2487	9.95E-05
56.3737	0.000101395
56.4987	0.000100859
56.6237	9.85E-05
56.7487	9.57E-05
56.8737	9.72E-05
56.9987	9.70E-05
57.1237	9.59E-05
57.2487	9.32E-05
57.3737	9.51E-05
57.4987	9.42E-05
57.6238	8.98E-05
57.7488	9.23E-05
57.8738	8.98E-05
57.9988	8.97E-05
58.1238	9.13E-05
58.2488	9.11E-05
58.3738	9.15E-05
58.4988	9.00E-05
58.6238	9.01E-05
58.7488	9.30E-05
58.8738	9.08E-05
58.9988	9.05E-05
59.1238	9.41E-05
59.2488	9.31E-05
59.3738	8.96E-05
59.4988	8.99E-05
59.6238	8.55E-05
59.7489	8.61E-05
59.8739	8.44E-05
59.9989	8.70E-05
60.123	8.92E-05
60.2489	8.68E-05
60.3739	8.72E-05
60.4989	8.46E-05
60.6239	8.64E-05
60.7489	8.17E-05
60.8739	7.93E-05
60.9989	7.99E-05
61.1239	8.06E-05
61.2489	8.18E-05
61.3739	7.83E-05
61.4989	7.66E-05
61.6239	7.93E-05
61.7489	8.07E-05
61.874	7.76E-05
61.999	8.18E-05
62.124	7.81E-05
62.249	7.95E-05
62.374	7.79E-05
62.499	7.79E-05
62.624	7.79E-05
62.749	7.81E-05
62.874	7.38E-05
62.999	7.40E-05
63.124	7.00E-05
63.2472	7.21E-05
63.3721	7.42E-05
63.499	7.22E-05
63.624	7.29E-05
63.749	7.22E-05
63.874	7.14E-05
63.999	7.13E-05
64.1241	6.85E-05
64.2491	7.00E-05
64.3741	7.13E-05
64.4991	7.00E-05
64.6241	6.72E-05
64.7491	6.73E-05
64.8741	6.49E-05
64.9991	6.63E-05
65.1241	6.53E-05
65.2491	6.64E-05
65.3741	6.59E-05
65.4991	6.34E-05
65.6241	6.49E-05
65.7491	5.95E-05
65.8741	6.26E-05
65.9991	6.08E-05
66.1241	6.34E-05
66.2492	6.13E-05
66.3742	5.99E-05
66.4992	5.83E-05
66.6242	6.45E-05
66.7492	6.10E-05
66.8742	5.94E-05
66.9986	6.29E-05
67.1241	5.87E-05
67.2492	6.09E-05
67.3742	5.87E-05
67.4992	5.99E-05
67.6242	6.16E-05
67.7492	5.97E-05
67.8742	5.78E-05
67.9992	5.77E-05
68.1242	5.89E-05
68.2492	5.53E-05
68.3742	5.72E-05
68.4993	5.53E-05
68.6243	5.66E-05
68.7493	5.49E-05
68.8741	5.54E-05
68.9989	5.12E-05
69.1243	5.21E-05
69.2493	4.95E-05
69.3743	5.32E-05
69.4993	5.22E-05
69.6243	5.33E-05
69.7493	5.43E-05
69.8743	5.37E-05
69.9993	5.19E-05
70.1243	5.13E-05
70.2493	5.51E-05
70.3743	5.54E-05
70.4993	5.17E-05
70.6244	5.23E-05
70.7494	5.07E-05
70.8744	5.33E-05
70.9994	5.18E-05
71.1244	5.06E-05
71.2494	5.05E-05
71.3744	5.02E-05
71.4994	5.09E-05
71.6244	4.75E-05
71.7494	4.81E-05
71.8744	4.52E-05
71.9994	4.77E-05
72.1244	4.54E-05
72.2494	4.93E-05
72.3744	4.60E-05
72.4994	4.84E-05
72.6244	4.52E-05
72.7494	4.54E-05
72.8745	4.43E-05
72.9995	4.71E-05
73.1245	4.39E-05
73.2495	4.64E-05
73.3745	4.29E-05
73.4995	4.15E-05
73.6245	4.18E-05
73.7495	4.08E-05
73.8745	4.29E-05
73.9995	4.32E-05
74.1245	4.23E-05
74.2495	4.31E-05
74.3745	4.30E-05
74.4995	4.15E-05
74.6245	4.17E-05
74.7495	4.20E-05
74.8745	4.15E-05
74.9995	4.04E-05
75.1246	4.26E-05
75.2496	3.88E-05
75.3746	4.05E-05
75.4996	4.07E-05
75.6246	3.77E-05
75.7496	4.00E-05
75.8746	3.81E-05
75.9996	3.99E-05
76.1246	4.07E-05
76.2496	3.93E-05
76.3746	3.57E-05
76.4996	3.54E-05
76.6246	3.64E-05
76.7496	3.82E-05
76.8746	3.58E-05
76.9996	3.48E-05
77.1246	3.72E-05
77.2496	3.82E-05
77.3747	3.68E-05
77.4997	3.69E-05
77.6247	3.61E-05
77.7497	3.41E-05
77.8747	2.99E-05
77.9997	3.72E-05
78.1247	3.47E-05
78.2497	3.18E-05
78.3747	3.09E-05
78.4997	3.04E-05
78.6247	3.26E-05
78.7497	3.30E-05
78.8747	3.27E-05
78.9997	2.97E-05
79.1247	2.94E-05
79.2497	2.67E-05
79.3747	2.72E-05
79.4998	2.79E-05
79.6248	2.86E-05
79.7498	2.88E-05
79.8748	2.62E-05
79.9998	2.75E-05
80.1248	2.72E-05
80.2498	2.93E-05
80.3748	2.60E-05
80.4998	2.79E-05
80.6248	2.66E-05
80.7498	2.51E-05
80.8748	2.70E-05
80.9998	2.77E-05
81.1248	2.77E-05
81.2498	2.48E-05
81.3748	2.64E-05
81.4998	2.69E-05
81.6248	2.83E-05
81.7499	2.56E-05
81.8749	2.35E-05
81.9999	2.60E-05
82.1249	2.66E-05
82.2499	2.69E-05
82.3749	2.62E-05
82.4999	2.29E-05
82.6249	2.36E-05
82.7499	2.53E-05
82.8749	2.19E-05
82.9999	2.37E-05
83.1249	2.14E-05
83.2499	2.14E-05
83.3749	1.88E-05
83.4999	1.80E-05
83.6249	2.44E-05
83.7499	2.01E-05
83.875	2.01E-05
84	1.95E-05
84.125	1.87E-05
84.25	2.03E-05
84.375	2.06E-05
84.5	2.12E-05
84.625	1.72E-05
84.75	1.96E-05
84.875	2.01E-05
85	2.06E-05
85	1.69E-05
-0.00386047	0.000107073
0.12114	0.000102729
0.246155	0.000105672
0.371155	0.000103698
0.49617	0.000104413
0.621017	0.000102856
0.746063	0.000103876
0.871094	0.000100427
0.99614	0.000103049
1.12119	0.000107475
1.2462	0.000104331
1.3712	0.000104301
1.4962	0.000101276
1.62122	0.000104152
1.74622	0.000105575
1.87122	0.000106767
1.99623	0.000101388
2.12123	0.000102826
2.24625	0.000102677
2.37125	0.000100628
2.49625	0.000100956
2.62126	0.000105113
2.74626	0.000101567
2.87126	0.000102923
2.99628	0.000102856
3.12128	0.000101075
3.24628	0.000102662
3.37129	0.000100174
3.49629	0.000102371
3.62131	0.000100762
3.74631	0.000105374
3.87131	0.000100203
3.99632	9.95E-05
4.12132	0.000103824
4.24632	0.000102669
4.37134	0.000100747
4.49606	0.000100241
4.62105	9.95E-05
4.74635	0.000101403
4.87135	0.000101105
4.99635	0.000103645
5.12137	0.00010372
5.24637	0.000100613
5.37138	0.000100516
5.49638	0.000100196
5.62138	9.87E-05
5.7464	0.000101448
5.8714	0.000104554
5.9964	0.000102155
6.12141	0.000104584
6.24641	9.90E-05
6.37143	0.000100308
6.49643	9.79E-05
6.62143	0.000101306
6.74644	0.000101097
6.87056	0.000102669
6.99646	0.000103944
7.12147	0.000100188
7.24647	0.000100323
7.37147	0.000100121
7.49648	9.90E-05
7.62148	0.000102103
7.74648	0.000102446
7.8715	0.000100442
7.9965	9.99E-05
8.1215	0.000101701
8.24651	9.83E-05
8.37151	0.000100717
8.49653	0.000101462
8.62153	0.000101157
8.74653	0.000101954
8.87154	0.000100762
8.99654	0.000100442
9.12155	0.000101969
9.24656	0.000100308
9.37156	0.00010226
9.49657	0.000104301
9.62157	0.000100248
9.74658	0.000101015
9.87159	0.000101775
9.99659	0.000101977
10.1216	0.000101001
10.2466	0.00010217
10.3716	0.000100889
10.4966	0.000103049
10.6216	0.000100367
10.7466	0.000103862
10.8716	0.000103683
10.9966	0.000100181
11.1216	9.92E-05
11.2466	0.000102133
11.3717	9.95E-05
11.4967	9.96E-05
11.6216	0.000101336
11.7464	9.90E-05
11.8711	1.00E-04
11.9961	0.00010036
12.121	0.000102222
12.2463	0.000100717
12.3711	0.000102215
12.4957	0.000100874
12.6204	9.98E-05
12.7454	9.93E-05
12.8711	0.000100464
12.9967	9.96E-05
13.1217	0.000100263
13.2467	0.000103944
13.3717	0.000100397
13.4967	0.000101634
13.6217	0.000102327
13.7468	0.000102886
13.8718	0.000103742
13.9968	9.93E-05
14.1218	0.000102737
14.2468	0.000102461
14.3718	0.000100099
14.4961	0.00010147
14.6214	0.000102237
14.7468	0.000101433
14.8718	0.000101395
14.9968	0.000103049
15.1218	0.000100412
15.2468	0.000100092
15.3718	0.000100956
15.4968	0.000101418
15.6218	0.000100852
15.7468	9.98E-05
15.8719	9.85E-05
15.9969	0.000100703
16.1219	0.000101425
16.2466	9.79E-05
16.3716	0.000100397
16.4969	9.86E-05
16.6219	9.98E-05
16.7469	9.98E-05
16.8719	9.85E-05
16.9969	9.89E-05
17.1219	9.93E-05
17.2469	0.000101641
17.3719	0.000100688
17.4969	9.78E-05
17.6219	9.89E-05
17.7469	0.000101358
17.872	9.99E-05
17.997	9.85E-05
18.122	0.000101679
18.247	9.95E-05
18.372	0.000102506
18.497	9.90E-05
18.622	9.99E-05
18.747	0.000100591
18.872	0.000102282
18.997	0.000100665
19.122	0.000104748
19.247	0.000100814
19.372	0.000101351
19.497	0.000103876
19.6211	0.000104316
19.7458	0.000105113
19.8709	0.000101299
19.996	0.000102535
20.1221	0.000103891
20.2471	0.000101671
20.3721	1.00E-04
20.4971	0.000100695
20.6221	0.000101805
20.7471	9.88E-05
20.8721	1.00E-04
20.9971	0.000101731
21.1221	0.000103936
21.2471	0.000101448
21.3721	0.000101403
21.4971	0.000101269
21.6221	0.000102282
21.7471	0.000103221
21.8721	0.000101947
21.9971	0.000102722
22.1221	0.000101775
22.2471	0.000103929
22.3722	0.000101507
22.4972	0.000106045
22.6222	0.000104622
22.7472	0.000104383
22.8722	0.000106119
22.9972	0.000104815
23.1222	0.000105888
23.2472	0.000103049
23.3722	0.000103422
23.4972	0.00010667
23.6222	0.000103578
23.7472	9.97E-05
23.8722	0.000103757
23.9972	0.000100792
24.1222	9.86E-05
24.2472	0.00010112
24.3722	0.000104182
24.4973	0.000104532
24.6223	0.000105493
24.7473	0.000103802
24.8723	9.98E-05
24.9973	0.000102982
25.1223	0.000105188
25.2473	0.000104525
25.3723	0.000103973
25.4973	0.000103705
25.6223	0.000103601
25.7473	0.000106842
25.8723	0.000103362
25.9973	0.00010635
26.1223	0.000102126
26.2473	0.00010629
26.3723	0.000102886
26.4973	0.000104785
26.6224	0.000106127
26.7474	0.000103005
26.8712	0.000105776
26.9974	0.000107587
27.1224	0.000102915
27.2474	0.000105501
27.3724	0.000104815
27.4974	0.000105419
27.6224	0.000106626
27.7474	0.000105359
27.8724	0.000104011
27.9974	0.000103839
28.1224	0.000103407
28.2474	0.000104398
28.3724	0.000105039
28.4974	0.000103944
28.6224	0.000107155
28.7474	0.000108019
28.8724	0.000104055
28.9975	0.000105665
29.1225	0.000105493
29.2475	0.000104413
29.3725	0.000103802
29.4975	0.000109323
29.6225	0.000103616
29.7475	0.000105449
29.8725	0.000104763
29.9975	0.00010679
30.1225	0.000105769
30.2475	0.000102833
30.3725	0.000107497
30.4975	0.000105985
30.6225	0.000106886
30.7475	0.000104033
30.8725	0.000106633
30.9975	0.000104607
31.1226	0.000106358
31.2476	0.000102491
31.3726	0.000104018
31.4976	0.000106678
31.6226	0.000107214
31.7476	0.000106797
31.8726	0.000106961
31.9976	0.000109159
32.1226	0.000106909
32.2476	0.000109323
32.3726	0.000107855
32.4976	0.000108168
32.6226	0.000110113
32.7476	0.000106805
32.8726	0.000107542
32.9976	0.000110046
33.1226	0.000106797
33.2477	0.000109934
33.3727	0.000111267
33.4977	0.000107319
33.6227	0.000108466
33.7477	0.000109718
33.8727	0.000107952
33.9977	0.000104405
34.1224	0.000109919
34.2476	0.000110515
34.3724	0.000108682
34.4971	0.000109546
34.6227	0.000105471
34.7477	0.000110679
34.8727	0.000112109
34.9977	0.00010831
35.1227	0.000107527
35.2477	0.00010755
35.3727	0.000108302
35.4977	0.000108809
35.6228	0.000110738
35.7478	0.000108332
35.8728	0.000110686
35.9978	0.000109531
36.1228	0.000110053
36.2477	0.000110008
36.3726	0.000110507
36.4978	0.00011202
36.6228	0.000109353
36.7474	0.000106104
36.8725	0.000110135
36.9978	0.000107266
37.1228	0.000109487
37.2478	0.000110709
37.3728	0.000108049
37.4978	0.000110545
37.6228	0.000109151
37.7479	0.0001098
37.8729	0.000110291
37.9979	0.000108846
38.1229	0.000112825
38.2479	0.00011053
38.3729	0.00010977
38.4979	0.000111275
38.6229	0.000109561
38.7479	0.000112325
38.8729	0.0001117
38.9979	0.000112154
39.1229	0.000111089
39.2479	0.000110962
39.3729	0.000111491
39.4979	0.00011348
