Photodiode Viewing Angle (Degrees) - Plot 0	Lock-in Signal Amplitude (V) - Plot 0
-0.00386047	0.000396939
0.12114	0.00039974
0.246155	0.000397118
0.371155	0.000397297
0.49617	0.000399085
0.62117	0.000398131
0.74617	0.000394734
0.871185	0.000394763
0.996185	0.000396701
1.12119	0.000395359
1.2462	0.000393214
1.3712	0.000393333
1.4962	0.000393094
1.62122	0.000392618
1.74622	0.000397148
1.87122	0.000392498
1.99623	0.000393601
2.12123	0.000394048
2.24625	0.000395807
2.37125	0.000392707
2.49625	0.000394793
2.62126	0.00039524
2.74626	0.000391813
2.87126	0.000394734
2.99504	0.000391992
3.11943	0.000391962
3.24463	0.00039229
3.36955	0.000391008
3.49629	0.000388982
3.62131	0.000388356
3.74631	0.000390204
3.87131	0.000392588
3.99632	0.000395568
4.12132	0.000393661
4.24632	0.000395687
4.37134	0.000395568
4.49634	0.000393482
4.62134	0.000393154
4.74635	0.000393571
4.87135	0.000391187
4.99635	0.000392796
5.12137	0.000397356
5.24637	0.000391783
5.37138	0.000394763
5.49638	0.000390919
5.62138	0.000391932
5.7464	0.000393065
5.8714	0.000393005
5.9964	0.000394614
6.12141	0.000394138
6.24641	0.000397088
6.37143	0.00039533
6.49643	0.000394585
6.62143	0.000396373
6.74644	0.00039527
6.87144	0.000394614
6.99646	0.000397684
7.12147	0.000393691
7.24647	0.000396522
7.37147	0.000395657
7.49648	0.00039372
7.62148	0.000397237
7.74648	0.00039831
7.8715	0.000396999
7.9965	0.000397028
8.1215	0.000395717
8.24651	0.000396909
8.37151	0.00039533
8.49653	0.000394197
8.62153	0.000391902
8.74653	0.000392141
8.87154	0.000393631
8.99654	0.000390561
9.12155	0.000391068
9.24656	0.000390681
9.37156	0.000387819
9.49645	0.000389637
9.6212	0.000387968
9.74658	0.00038472
9.87061	0.000387879
9.99607	0.000390025
10.1213	0.000386657
10.2453	0.000386002
10.3706	0.000388207
10.4966	0.000388326
10.6216	0.000386866
10.7466	0.000386508
10.8716	0.000389548
10.9966	0.000394912
11.1216	0.000388773
11.2466	0.000392796
11.3717	0.000389161
11.4967	0.000389131
11.6217	0.000389965
11.7467	0.000393214
11.8717	0.000391724
11.9967	0.000394138
12.1217	0.000394734
12.2467	0.000390442
12.3717	0.000392767
12.4961	0.000395628
12.6204	0.000394287
12.745	0.000396879
12.8717	0.000391247
12.9953	0.000389429
13.1204	0.000391873
13.2467	0.00039083
13.3717	0.000390651
13.4967	0.000390859
13.6217	0.000387849
13.7468	0.000386717
13.8718	0.000385584
13.9968	0.000383439
14.1218	0.000384213
14.2468	0.000382246
14.3718	0.000384452
14.4968	0.000383081
14.6218	0.000385376
14.7468	0.000384988
14.8718	0.000383588
14.9968	0.000383141
15.1218	0.00038171
15.2468	0.000383379
15.3718	0.00038171
15.4968	0.000380458
15.6218	0.000380518
15.7468	0.000387432
15.8719	0.000382693
15.9969	0.000383826
16.1219	0.000385793
16.2469	0.000384064
16.3719	0.000385018
16.4969	0.000387253
16.6219	0.000385227
16.7469	0.000387581
16.8719	0.000384124
16.9969	0.000387015
17.1219	0.000387104
17.2469	0.000387253
17.3714	0.00038779
17.4954	0.000383886
17.6219	0.000384809
17.7469	0.000378968
17.872	0.000379266
17.997	0.000376495
18.122	0.000376524
18.247	0.000378491
18.372	0.000374915
18.497	0.000373187
18.622	0.000374706
18.747	0.000376256
18.872	0.000374766
18.997	0.000375571
19.122	0.000375392
19.247	0.000376107
19.372	0.000378223
19.497	0.000380339
19.622	0.000378849
19.747	0.000378581
19.872	0.000380011
19.997	0.000384839
20.1221	0.000380816
20.2471	0.000382366
20.3721	0.000380905
20.4971	0.000379713
20.6221	0.000384333
20.7471	0.000383439
20.8721	0.000382425
20.9971	0.000383081
21.1221	0.000379058
21.2471	0.000378015
21.3721	0.000380071
21.4971	0.000378909
21.6221	0.000376107
21.7471	0.000375958
21.8721	0.000376912
21.9971	0.000374706
22.1221	0.000374915
22.2471	0.000372292
22.3722	0.00037575
22.4972	0.00037417
22.6222	0.000371339
22.7472	0.000371637
22.8722	0.000374289
22.9972	0.000374021
23.1222	0.000374081
23.2472	0.000371309
23.3722	0.000372441
23.4972	0.000373365
23.6222	0.00037569
23.7472	0.000373574
23.8722	0.000373723
23.9972	0.00037575
24.1222	0.000375332
24.2472	0.000373693
24.3722	0.000375004
24.4973	0.000371935
24.6213	0.000372799
24.7473	0.000378551
24.8723	0.000372918
24.9973	0.000372978
25.1223	0.000370385
25.2473	0.000369044
25.3723	0.000370683
25.4973	0.000367554
25.6223	0.00037265
25.7473	0.000367971
25.8723	0.000365825
25.9973	0.000366421
26.1223	0.000367226
26.2473	0.000360997
26.3723	0.000367107
26.4973	0.000361951
26.6224	0.000368984
26.7474	0.000370147
26.8724	0.000368388
26.9974	0.00036812
27.1224	0.000369521
27.2474	0.000371249
27.3724	0.00037122
27.4974	0.000370027
27.6224	0.000367166
27.7474	0.000369908
27.8724	0.000366898
27.9974	0.000368925
28.1224	0.000365885
28.2474	0.000365349
28.3724	0.000364216
28.4974	0.000363948
28.6224	0.000362994
28.7474	0.000359537
28.8724	0.000361593
28.9975	0.000361742
29.1225	0.000362726
29.2475	0.000363918
29.3725	0.000363709
29.4975	0.000365587
29.6225	0.000364305
29.7475	0.000362577
29.8725	0.000362189
29.9975	0.00036821
30.1225	0.000362488
30.2475	0.000366421
30.3725	0.000364931
30.4975	0.000364216
30.6225	0.000368686
30.7475	0.000366541
30.8725	0.000370802
30.9975	0.000364395
31.1226	0.000366094
31.2476	0.000367494
31.3726	0.000366988
31.4976	0.000361713
31.6226	0.000364365
31.7476	0.000365885
31.8726	0.00036365
31.9976	0.000360699
32.1226	0.000362607
32.2476	0.000360044
32.3726	0.000362547
32.4976	0.000361504
32.6226	0.000363501
32.7476	0.000361564
32.8726	0.000363739
32.9976	0.000362517
33.1226	0.000360223
33.2477	0.000362488
33.3727	0.000364872
33.4977	0.000366898
33.6227	0.000363531
33.7477	0.000365974
33.8727	0.000362488
33.9977	0.000364186
34.1227	0.000365706
34.2477	0.000361206
34.3727	0.000364633
34.4977	0.000365051
34.6227	0.000361921
34.7477	0.000364276
34.8727	0.000364723
34.9977	0.000365676
35.1227	0.00036359
35.2477	0.000366004
35.3727	0.000358315
35.4977	0.000355454
35.6228	0.000355693
35.7478	0.000356855
35.8728	0.000354977
35.9978	0.000357749
36.1228	0.000356259
36.2478	0.000352593
36.3728	0.000352206
36.4978	0.000352921
36.6228	0.000353428
36.7478	0.000354202
36.8728	0.000354083
36.9978	0.000353457
37.1228	0.000351848
37.2478	0.000356497
37.3728	0.00035009
37.4978	0.000355395
37.6228	0.000355871
37.7479	0.000353577
37.8729	0.000353696
37.9979	0.000355633
38.1229	0.000353636
38.2479	0.000354649
38.3729	0.000355484
38.4979	0.000355454
38.6229	0.000356259
38.7479	0.00035754
38.8729	0.000358047
38.9979	0.00035757
39.1229	0.000357689
39.2479	0.000356944
39.3729	0.000353934
39.4979	0.000354262
39.6229	0.000350805
39.7479	0.000352355
39.8729	0.000349851
39.998	0.000350835
40.123	0.000352951
40.248	0.000344457
40.373	0.000347795
40.498	0.000348331
40.623	0.000347586
40.748	0.000346692
40.873	0.000339719
40.998	0.000340791
41.123	0.000339868
41.248	0.000336768
41.373	0.000332447
41.498	0.000331851
41.623	0.000333609
41.7371	0.000333758
41.873	0.000334295
41.998	0.000335874
42.123	0.000337007
42.2481	0.000337513
42.3731	0.000340076
42.4981	0.000342937
42.6231	0.000342818
42.7481	0.000340881
42.8731	0.000341268
42.9981	0.000338318
43.1231	0.000334712
43.2481	0.000333669
43.3731	0.000328692
43.4981	0.000328572
43.6231	0.00032449
43.7481	0.000325056
43.8731	0.000320705
43.9981	0.000321897
44.1231	0.000317724
44.2482	0.000319185
44.3732	0.000317426
44.4982	0.000316771
44.6232	0.000313224
44.7482	0.000322552
44.8732	0.000318618
44.9982	0.000318231
45.1232	0.000317456
45.2482	0.000317814
45.3732	0.000316622
45.4982	0.000313105
45.6232	0.000311883
45.7482	0.000310363
45.8732	0.00030628
45.9982	0.000305803
46.1232	0.000303509
46.2482	0.000299336
46.3733	0.000297936
46.4983	0.00029576
46.6233	0.000293048
46.7483	0.000293525
46.8733	0.000291379
46.9983	0.000289293
47.1233	0.000289949
47.2483	0.000293883
47.3733	0.000292929
47.4983	0.000291558
47.6233	0.000294628
47.7483	0.000291886
47.8733	0.000289144
47.9983	0.000292005
48.1233	0.000289323
48.2483	0.000288071
48.3733	0.00028524
48.4983	0.000284763
48.6233	0.000282796
48.7484	0.000281783
48.8734	0.000280859
48.9984	0.000278505
49.1234	0.000275882
49.2484	0.000272544
49.3734	0.000273677
49.4984	0.000268372
49.6234	0.00026706
49.7484	0.000268819
49.8734	0.000265779
49.9984	0.000266166
50.1234	0.000268282
50.2484	0.000266166
50.3734	0.000266375
50.4984	0.000267478
50.6234	0.000266256
50.7484	0.00026569
50.8735	0.000264855
50.9985	0.000264676
51.1235	0.000263991
51.2485	0.000264855
51.3735	0.000264199
51.4985	0.000259759
51.6235	0.000260534
51.7485	0.000257703
51.8735	0.000256957
51.9985	0.000254424
52.1234	0.00025359
52.2483	0.000251712
52.3735	0.000250043
52.4981	0.000249596
52.6231	0.000249239
52.7485	0.00024757
52.8735	0.000248106
52.9985	0.000248643
53.1236	0.000244112
53.2486	0.000245543
53.3736	0.000244052
53.4985	0.000243516
53.6236	0.000242204
53.7486	0.000239433
53.8736	0.000245394
53.9986	0.00024283
54.1236	0.000239433
54.2486	0.000241281
54.3736	0.000238658
54.4986	0.000237406
54.6236	0.000233919
54.7486	0.000233919
54.8736	0.000233294
54.9986	0.000233651
55.1236	0.000232459
55.2486	0.000232489
55.3737	0.000231565
55.4987	0.000226618
55.6237	0.000227899
55.7487	0.000226975
55.8737	0.000224412
55.9987	0.000223936
56.1237	0.000217677
56.2487	0.00021881
56.3737	0.000213922
56.4987	0.000216336
56.6237	0.000215293
56.7487	0.000214667
56.8737	0.000213654
56.9987	0.000212342
57.1237	0.0002127
57.2487	0.000209839
57.3737	0.000212491
57.4987	0.000210048
57.6238	0.000210197
57.7488	0.000209094
57.8738	0.000210942
57.9988	0.000214041
58.1238	0.000209958
58.2488	0.000210256
58.3738	0.00020972
58.4988	0.000207634
58.6238	0.000204385
58.7488	0.000206352
58.8738	0.000202418
58.9988	0.000206799
59.1238	0.00020218
59.2488	0.000200422
59.3738	0.000197769
59.4988	0.00020215
59.6238	0.00019759
59.7489	0.000194938
59.8739	0.000190736
59.9989	0.0001871
60.1239	0.000191272
60.2489	0.000187011
60.3739	0.000189782
60.4989	0.000187279
60.6239	0.000187517
60.7489	0.000192375
60.8739	0.000188769
60.9989	0.000191064
61.1239	0.00018856
61.2489	0.00019017
61.3739	0.000189603
61.4989	0.000185491
61.6239	0.000183911
61.7489	0.000180394
61.874	0.000177295
61.999	0.000182034
62.124	0.000180812
62.249	0.000180245
62.374	0.000181378
62.499	0.000178666
62.624	0.000182779
62.749	0.00017956
62.874	0.000177414
62.999	0.000175954
63.124	0.000175775
63.249	0.000173748
63.374	0.000175
63.499	0.000169546
63.624	0.00016898
63.749	0.00017047
63.874	0.000166417
63.999	0.000165761
64.1241	0.000163467
64.2491	0.000163735
64.3741	0.000160814
64.4991	0.000162185
64.6241	0.000160099
64.7491	0.000160486
64.8741	0.000158519
64.9991	0.000156135
65.1241	0.000157804
65.2491	0.000155331
65.3741	0.000155629
65.4991	0.000156791
65.6241	0.000155033
65.7491	0.000151397
65.8741	0.000151576
65.9991	0.000150801
66.1241	0.000147701
66.2492	0.000151397
66.3742	0.000151874
66.4992	0.000152231
66.6242	0.000150026
66.7492	0.000150681
66.8742	0.00015083
66.9992	0.000149489
67.1242	0.000149668
67.2492	0.000154347
67.3742	0.000147701
67.4992	0.000146032
67.6242	0.00014487
67.7492	0.000138194
67.8742	0.000139565
67.9992	0.000134231
68.1242	0.000134767
68.2492	0.000130356
68.3742	0.000131459
68.4993	0.000127048
68.6243	0.000128479
68.7493	0.000133694
68.8743	0.000135393
68.9993	0.000133456
69.1243	0.000133307
69.2493	0.000132383
69.3743	0.000131072
69.4993	0.000129492
69.6243	0.000129015
69.7493	0.000125886
69.8743	0.000124843
69.9993	0.000123502
70.1243	0.000124932
70.2493	0.000123532
70.3743	0.000120819
70.4993	0.000123561
70.6244	0.000121266
70.7494	0.000117273
70.8744	0.000117004
70.9994	0.000118196
71.1244	0.000114769
71.2494	0.000116706
71.3744	0.000116736
71.4994	0.000116766
71.6244	0.000117451
71.7494	0.000111729
71.8744	0.000111461
71.9994	0.000111074
72.1244	0.000109882
72.2494	0.000108153
72.3744	0.000106514
72.4994	0.000106425
72.6244	0.000105829
72.7494	0.000108898
72.8745	0.000104338
72.9995	0.00010261
73.1245	0.000105173
73.2495	0.000104636
73.3745	0.000103623
73.4995	0.000106246
73.6245	0.00010553
73.7495	0.000104249
73.8745	0.000102789
73.9995	9.96E-05
74.1245	9.66E-05
74.2495	9.22E-05
74.3745	9.45E-05
74.4995	9.27E-05
74.6245	9.16E-05
74.7495	9.22E-05
74.8745	8.79E-05
74.9995	8.98E-05
75.1246	8.90E-05
75.2496	8.62E-05
75.3742	8.57E-05
75.4996	8.52E-05
75.6246	8.31E-05
75.7496	7.98E-05
75.8746	7.81E-05
75.9996	8.40E-05
76.1246	8.42E-05
76.2496	8.71E-05
76.3746	8.41E-05
76.4996	8.59E-05
76.6246	8.32E-05
76.7496	7.99E-05
76.8746	7.73E-05
76.9996	7.29E-05
77.1246	7.53E-05
77.2496	7.40E-05
77.3747	7.12E-05
77.4997	7.46E-05
77.6247	7.21E-05
77.7497	7.16E-05
77.8747	6.88E-05
77.9997	7.01E-05
78.1247	6.91E-05
78.2497	7.08E-05
78.3747	6.82E-05
78.4997	7.13E-05
78.6247	6.61E-05
78.7497	6.74E-05
78.8747	6.16E-05
78.9997	6.29E-05
79.1247	5.89E-05
79.2497	5.60E-05
79.3747	5.63E-05
79.4998	5.93E-05
79.6248	6.09E-05
79.7498	5.92E-05
79.8748	5.61E-05
79.9998	5.78E-05
80.1248	5.88E-05
80.2498	5.61E-05
80.3748	5.39E-05
80.4998	5.43E-05
80.6248	5.45E-05
80.7498	5.22E-05
80.8748	5.16E-05
80.9998	4.88E-05
81.1248	4.74E-05
81.2498	4.82E-05
81.3748	4.85E-05
81.4998	4.63E-05
81.6248	4.68E-05
81.7499	4.46E-05
81.8749	4.68E-05
81.9999	4.60E-05
82.1249	4.60E-05
82.2499	4.41E-05
82.3749	4.45E-05
82.4999	4.70E-05
82.6249	4.27E-05
82.7499	3.82E-05
82.8749	3.50E-05
82.9999	4.01E-05
83.1249	3.85E-05
83.2499	3.97E-05
83.3749	4.01E-05
83.4999	3.78E-05
83.6249	3.35E-05
83.7499	2.98E-05
83.875	2.44E-05
84	2.43E-05
84.125	2.39E-05
84.25	1.96E-05
84.375	1.80E-05
84.5	1.77E-05
84.625	2.29E-05
84.75	1.76E-05
84.8744	1.75E-05
85	1.83E-05
85	1.70E-05
-0.00386047	0.000399681
0.12114	0.000400068
0.246155	0.000399472
0.371155	0.000400038
0.49617	0.000395687
0.62117	0.000396939
0.74617	0.000395985
0.871185	0.000394078
0.996185	0.000396492
1.12119	0.000397833
1.2462	0.00039679
1.3712	0.000395568
1.4962	0.000396611
1.62122	0.000392022
1.74622	0.000396701
1.87122	0.000395508
1.99623	0.000392528
2.12123	0.000395002
2.24625	0.000395508
2.37125	0.000393184
2.49625	0.000394167
2.62126	0.000394823
2.74626	0.000391992
2.87126	0.000392409
2.99628	0.000389041
3.12128	0.000389786
3.24628	0.0003908
3.37129	0.000389548
3.49629	0.000392439
3.62131	0.000391694
3.74631	0.000393661
3.87131	0.000392558
3.99632	0.00039375
4.12132	0.000395508
4.24632	0.00039223
4.37134	0.000394376
4.49634	0.000393065
4.62134	0.000396134
4.74635	0.000395091
4.87135	0.000393273
4.99635	0.000394465
5.12137	0.000390651
5.24637	0.000396432
5.37138	0.000393452
5.49638	0.000394436
5.62138	0.000394048
5.7464	0.00039378
5.8714	0.000394465
5.9964	0.000396462
6.12141	0.000397058
6.24641	0.000393005
6.37143	0.00039682
6.49643	0.000393899
6.62143	0.000395747
6.74644	0.000396164
6.87144	0.000398042
6.99646	0.000395926
7.12147	0.000394942
7.24647	0.000395777
7.37147	0.000397535
7.49648	0.000396939
7.62148	0.000397237
7.74648	0.000394823
7.8715	0.000397803
7.9965	0.000396909
8.1215	0.000397595
8.24651	0.000395687
8.37151	0.000397088
8.49653	0.000393571
8.62153	0.000395151
8.74653	0.000392796
8.87154	0.000391724
8.99654	0.000390889
9.12155	0.000392141
9.24656	0.000387134
9.37156	0.000389161
9.49657	0.00038627
9.62157	0.000388267
9.74658	0.00038618
9.87159	0.000386657
9.99659	0.000388773
10.1216	0.00038773
10.2466	0.000385853
10.3716	0.00038919
10.4966	0.000387134
10.6216	0.000391366
10.7466	0.000388326
10.8716	0.000391664
10.9966	0.000394018
11.1216	0.000392647
11.2466	0.000392796
11.3717	0.0003908
11.4967	0.000395002
11.6217	0.000391753
11.7467	0.000390591
11.8717	0.000393005
11.9967	0.000393691
12.1217	0.000392767
12.2467	0.000391247
12.3717	0.000391038
12.4966	0.000390055
12.6217	0.00039381
12.7467	0.000393989
12.8717	0.000391187
12.9967	0.000394585
13.1217	0.000392171
13.2467	0.000392528
13.3717	0.000389459
13.4967	0.000391992
13.6217	0.000387939
13.7468	0.000387909
13.8718	0.00038624
13.9968	0.000381263
14.1218	0.000384184
14.2468	0.000383856
14.3718	0.000382664
14.4968	0.000385644
14.6218	0.000384899
14.7468	0.000381531
14.8718	0.000383558
14.9968	0.000382306
15.1218	0.000380488
15.2468	0.00038472
15.3718	0.000384899
15.4968	0.000381859
15.6218	0.000380816
15.7468	0.000384392
15.8719	0.000382634
15.9969	0.000383737
16.1219	0.00038174
16.2469	0.00038469
16.3719	0.000386866
16.4969	0.000386449
16.6219	0.000384005
16.7469	0.00038767
16.8719	0.000388505
16.9969	0.00038925
17.1219	0.000387104
17.2469	0.00038624
17.3719	0.000386031
17.4969	0.000382217
17.6219	0.000386389
17.7469	0.000382604
17.872	0.000382068
17.997	0.000379236
18.122	0.000380458
18.247	0.000377299
18.372	0.000376286
18.497	0.000377567
18.6219	0.00037575
18.747	0.000376822
18.872	0.00037715
18.997	0.00037718
19.122	0.000375988
19.247	0.00038025
19.372	0.000378491
19.497	0.000380786
19.622	0.000378789
19.747	0.000381859
19.872	0.000381144
19.997	0.000381948
20.1221	0.000379356
20.2471	0.000379683
20.3721	0.000383737
20.4971	0.000379236
20.6221	0.000379654
20.7471	0.000380011
20.8721	0.000382306
20.9971	0.000382932
21.1221	0.000379564
21.2471	0.000379326
21.3721	0.000378789
21.4971	0.000376524
21.6221	0.000377538
21.7471	0.000372561
21.8721	0.00037566
21.9971	0.000374408
22.1221	0.000376048
22.2471	0.000373276
22.3722	0.000371309
22.4972	0.000375511
22.6222	0.00037411
22.7472	0.000371726
22.8722	0.000370683
22.9972	0.000373872
23.1222	0.000375452
23.2472	0.000372084
23.3722	0.000375392
23.4972	0.000373067
23.6222	0.000374349
23.7472	0.000371518
23.8722	0.000376673
23.9972	0.000374408
24.1222	0.000375958
24.2472	0.000373127
24.3722	0.000375124
24.4973	0.000372143
24.6223	0.000374766
24.7473	0.000371607
24.8713	0.000374587
24.9963	0.00037122
25.1223	0.000371398
25.2473	0.000370534
25.3723	0.000368686
25.4973	0.000368567
25.6223	0.000369074
25.7473	0.000368299
25.8723	0.000368567
25.9973	0.000367226
26.1223	0.000363978
26.2473	0.000363829
26.3723	0.000366809
26.4973	0.000366868
26.6224	0.000366213
26.7474	0.000367077
26.8724	0.000370326
26.9974	0.000371011
27.1224	0.00037116
27.2474	0.000370236
27.3724	0.000371398
27.4974	0.000371011
27.6224	0.000369878
27.7458	0.000368567
27.8712	0.000365647
27.9974	0.000367882
28.1224	0.000364812
28.2474	0.00036666
28.3724	0.000365051
28.4974	0.000363203
28.6224	0.000364782
28.7474	0.000364425
28.8724	0.000360074
28.9975	0.000361295
29.1225	0.000358762
29.2475	0.000363799
29.3725	0.00036216
29.4975	0.000363173
29.6225	0.000364812
29.7475	0.000362905
29.8725	0.00036517
29.9975	0.000366243
30.1225	0.000362875
30.2475	0.000365617
30.3725	0.000365259
30.4975	0.00036809
30.6225	0.000363173
30.7475	0.000364603
30.8725	0.000366511
30.9975	0.000361564
31.1226	0.000365587
31.2476	0.000364872
31.3726	0.000367017
31.4976	0.000363441
31.6226	0.000362607
31.7476	0.000366004
31.8726	0.000364603
31.9976	0.000365617
32.1226	0.000361176
32.2476	0.000362875
32.3719	0.000360908
32.4962	0.000361802
32.6226	0.000363203
32.7476	0.000362338
32.8726	0.000363441
32.9976	0.000360521
33.1226	0.000363173
33.2477	0.000362666
33.3727	0.000365259
33.4977	0.000361623
33.6227	0.00036514
33.7477	0.000365349
33.8727	0.000362011
33.9977	0.000362637
34.1227	0.000364991
34.2477	0.000362607
34.3727	0.000365408
34.4977	0.000364216
34.6227	0.000364395
34.7477	0.000364216
34.8727	0.000365706
34.9977	0.000364156
35.1215	0.000363054
35.2477	0.000362309
35.3727	0.000358822
35.4977	0.000358971
35.6228	0.000359418
35.7478	0.000357034
35.8728	0.00035912
