Photodiode Viewing Angle (Degrees) - Plot 0	Lock-in Signal Amplitude (V) - Plot 0
-0.00386047	0.000100606
0.12114	0.000100472
0.246155	9.93E-05
0.371155	0.000101001
0.49617	9.94E-05
0.62117	0.000104055
0.74617	9.88E-05
0.871185	0.00010378
0.996185	9.97E-05
1.12039	9.97E-05
1.2462	0.000101582
1.3712	9.78E-05
1.4962	0.000101485
1.62122	0.000102461
1.74622	0.000101626
1.87122	9.70E-05
1.99623	0.000100501
2.12123	0.000101865
2.24625	9.73E-05
2.37125	0.000100308
2.49625	9.68E-05
2.62126	9.77E-05
2.74626	0.000101619
2.87126	9.62E-05
2.99628	0.000100635
3.12128	9.80E-05
3.24628	9.66E-05
3.37129	9.73E-05
3.49629	9.70E-05
3.62131	9.81E-05
3.74631	9.83E-05
3.87131	9.61E-05
3.99632	0.000100263
4.12132	9.74E-05
4.24632	9.97E-05
4.37134	9.88E-05
4.49634	9.61E-05
4.62134	9.80E-05
4.74635	9.90E-05
4.87135	9.70E-05
4.99635	9.78E-05
5.12137	9.86E-05
5.24637	9.80E-05
5.37138	9.59E-05
5.49638	9.69E-05
5.62138	9.75E-05
5.7464	9.89E-05
5.8714	0.000100188
5.9964	9.60E-05
6.12141	9.57E-05
6.24641	9.71E-05
6.37143	9.87E-05
6.49643	0.00010074
6.62143	9.85E-05
6.74644	9.85E-05
6.87144	9.68E-05
6.99646	9.82E-05
7.12147	9.87E-05
7.24647	9.42E-05
7.37147	9.78E-05
7.49648	9.62E-05
7.62148	9.68E-05
7.74648	9.69E-05
7.8715	9.82E-05
7.9965	9.83E-05
8.1215	9.75E-05
8.24651	9.93E-05
8.37151	9.91E-05
8.49653	9.78E-05
8.62153	9.79E-05
8.74653	9.89E-05
8.87154	9.52E-05
8.99654	9.87E-05
9.12155	9.53E-05
9.24656	9.99E-05
9.37156	9.82E-05
9.49657	9.47E-05
9.62157	9.66E-05
9.74658	9.73E-05
9.87159	9.76E-05
9.99659	9.79E-05
10.1216	9.67E-05
10.2466	9.66E-05
10.3716	9.43E-05
10.4966	9.86E-05
10.6216	9.95E-05
10.7466	9.50E-05
10.8716	9.55E-05
10.9966	9.83E-05
11.1216	9.63E-05
11.2466	9.63E-05
11.3709	9.58E-05
11.4959	9.29E-05
11.621	9.45E-05
11.7456	9.53E-05
11.8717	9.33E-05
11.9967	9.85E-05
12.1217	9.64E-05
12.2467	9.83E-05
12.3717	9.45E-05
12.4967	9.84E-05
12.6217	9.73E-05
12.7467	9.55E-05
12.8717	9.83E-05
12.9967	9.79E-05
13.1217	9.74E-05
13.2467	9.90E-05
13.3717	0.000100933
13.4967	9.76E-05
13.6217	9.72E-05
13.7468	9.96E-05
13.8718	9.87E-05
13.9968	9.53E-05
14.1208	9.83E-05
14.2455	9.82E-05
14.3718	9.92E-05
14.4968	9.99E-05
14.6218	9.50E-05
14.7468	9.76E-05
14.8718	9.59E-05
14.9968	9.73E-05
15.1218	9.47E-05
15.2468	9.86E-05
15.3718	9.62E-05
15.4968	9.73E-05
15.6218	9.77E-05
15.7468	9.32E-05
15.8719	9.44E-05
15.9969	9.59E-05
16.1214	9.43E-05
16.2469	9.66E-05
16.3709	9.75E-05
16.4961	9.78E-05
16.6219	9.76E-05
16.7469	9.94E-05
16.8719	9.36E-05
16.9969	9.92E-05
17.1219	9.75E-05
17.2469	9.95E-05
17.3719	9.81E-05
17.4969	9.90E-05
17.6219	9.93E-05
17.7469	9.77E-05
17.872	9.90E-05
17.997	9.62E-05
18.122	0.000101805
18.247	0.000101358
18.372	0.000100628
18.497	0.000100121
18.622	0.000101082
18.747	0.000100501
18.872	9.85E-05
18.997	0.000100047
19.122	9.89E-05
19.247	9.85E-05
19.37	0.000100293
19.497	9.93E-05
19.622	9.45E-05
19.747	0.000102215
19.872	9.56E-05
19.997	9.98E-05
20.1221	9.54E-05
20.2471	9.66E-05
20.3721	9.86E-05
20.4971	0.000100948
20.6221	9.81E-05
20.7471	9.91E-05
20.8721	9.86E-05
20.9971	9.88E-05
21.1221	9.71E-05
21.2471	9.82E-05
21.3721	0.000101418
21.4971	0.000100554
21.6221	0.000100345
21.7471	0.000103906
21.8721	0.000100025
21.9971	0.000101954
22.1221	9.89E-05
22.2471	0.000102699
22.3722	0.000101254
22.4972	0.000102915
22.6222	0.00010109
22.7472	9.84E-05
22.8722	0.000101962
22.9971	0.000103213
23.1222	0.000100859
23.2472	0.00010027
23.3722	9.88E-05
23.4972	9.76E-05
23.6222	9.98E-05
23.7472	9.86E-05
23.8722	0.000101991
23.9972	0.000103042
24.1222	0.000103422
24.2472	0.000100643
24.3722	9.88E-05
24.4973	0.000100971
24.6223	9.94E-05
24.7473	0.000100308
24.8723	0.000100755
24.9973	9.99E-05
25.1223	9.85E-05
25.2473	0.000102535
25.3722	0.000101157
25.4972	0.000101246
25.6223	0.000101194
25.7473	0.000100822
25.8723	0.000101313
25.9973	0.000101798
26.1223	0.000102714
26.2473	0.000101783
26.3723	0.000101209
26.4973	0.000101224
26.6224	0.000104286
26.7474	0.000105612
26.8724	0.000102729
26.9974	9.89E-05
27.1224	0.000100188
27.2474	0.000104942
27.3724	0.000103221
27.4974	0.000102513
27.6224	0.000102059
27.7474	0.000104756
27.8724	0.00010255
27.9974	0.000104949
28.1224	0.000102856
28.2474	0.000103385
28.3724	0.000101656
28.4974	0.000107207
28.6224	0.000103698
28.7474	0.000105843
28.8724	0.000108086
28.9975	0.000106439
29.1225	0.000107743
29.2475	0.000108511
29.3725	0.000106588
29.4975	0.000108622
29.6225	0.000109263
29.7475	0.000111618
29.8725	0.000108742
29.9975	0.000107296
30.1225	0.000110291
30.2475	0.000107594
30.3725	0.000107043
30.4975	0.000109762
30.6225	0.00010942
30.7475	0.00011202
30.8725	0.000110366
30.9975	0.000109844
31.1226	0.000109636
31.2476	0.000113301
31.3726	0.000114188
31.4976	0.000113875
31.6226	0.000112132
31.7476	0.000116222
31.8726	0.000115462
31.9976	0.000114903
32.1226	0.000114821
32.2476	0.000115179
32.3726	0.000113771
32.4976	0.000114896
32.6226	0.000119426
32.7476	0.000117988
32.8726	0.000117742
32.9976	0.000119158
33.1226	0.000115492
33.2477	0.000116282
33.3727	0.000116729
33.4977	0.000120014
33.6227	0.000117586
33.7477	0.000120715
33.8727	0.000118621
33.9977	0.000118904
34.1227	0.000123539
34.2477	0.000119545
34.3727	0.000126452
34.4977	0.000123435
34.6227	0.00012564
34.7477	0.000123941
34.8727	0.000126385
34.9977	0.000126855
35.1227	0.000126281
35.2477	0.000129634
35.3727	0.000128009
35.4977	0.000129835
35.6228	0.000126415
35.7476	0.00013134
35.8726	0.000129641
35.9971	0.000130736
36.1226	0.000130177
36.2478	0.000130543
36.3728	0.000133366
36.4978	0.00013727
36.6228	0.000136212
36.7478	0.000135855
36.8728	0.000133798
36.9978	0.00013435
37.1228	0.000136749
37.2478	0.000135616
37.3728	0.000132539
37.4978	0.000139148
37.6228	0.000138343
37.7479	0.000138299
37.8729	0.000139953
37.9979	0.000139781
38.1229	0.000145123
38.2479	0.000143372
38.3729	0.000144125
38.4979	0.000147053
38.6226	0.00014414
38.7479	0.000149951
38.8729	0.000149653
38.9979	0.000147537
39.1229	0.000147776
39.2479	0.000147902
39.3729	0.000152
39.4979	0.000153483
39.6229	0.000151657
39.7479	0.00015542
39.8729	0.000159384
39.998	0.000158877
40.123	0.000159414
40.248	0.000161261
40.373	0.000162588
40.498	0.000159659
40.623	0.000160121
40.748	0.00015776
40.873	0.00016074
40.998	0.000157596
41.123	0.000161507
41.248	0.000166208
41.373	0.000164472
41.498	0.000165247
41.623	0.000165173
41.748	0.000167863
41.873	0.000165292
41.998	0.000163705
42.123	0.000165486
42.248	0.000166365
42.3729	0.000167199
42.4981	0.000165657
42.6231	0.000168056
42.7481	0.000166313
42.8731	0.00016755
42.9981	0.000164562
43.1231	0.000170887
43.2481	0.000165776
43.3731	0.000169062
43.4981	0.000172005
43.6231	0.000169219
43.7481	0.000173808
43.8731	0.000172392
43.9981	0.000176684
44.1231	0.000173287
44.2482	0.000179806
44.3732	0.000178591
44.4982	0.000178748
44.6232	0.00017874
44.7482	0.000178793
44.8732	0.000176095
44.9982	0.000177377
45.1232	0.000175522
45.2482	0.000176982
45.3732	0.000177615
45.4982	0.000181646
45.6217	0.000184112
45.7463	0.000181668
45.8714	0.000182078
45.9982	0.000180506
46.1232	0.000182421
46.2482	0.000181326
46.3733	0.000182242
46.4983	0.000182503
46.6233	0.000182391
46.7483	0.000181221
46.8733	0.000181691
46.9983	0.000178711
47.1233	0.000178383
47.2483	0.000180089
47.3733	0.000178599
47.4983	0.000175753
47.6233	0.000174114
47.7483	0.000171469
47.8733	0.000168682
47.9983	0.000168444
48.1233	0.000169286
48.2483	0.000169122
48.3733	0.000168079
48.4983	0.000167572
48.6233	0.000175924
48.7484	0.000170865
48.8734	0.000174292
48.9984	0.000170768
49.1234	0.000171126
49.2484	0.000172318
49.3734	0.000166551
49.4984	0.000169308
49.6234	0.000167572
49.7484	0.000167035
49.8734	0.000166626
49.9984	0.000160337
50.1234	0.000160725
50.2484	0.000162737
50.3734	0.000159011
50.4984	0.000157082
50.623	0.000156679
50.7484	0.000157327
50.8735	0.000156016
50.9985	0.000152723
51.1235	0.000153632
51.2485	0.000155167
51.3735	0.000154757
51.4985	0.000156702
51.6235	0.000154675
51.7485	0.000152343
51.8735	0.000159354
51.9985	0.00015618
52.1235	0.00015773
52.2485	0.000155591
52.3735	0.000153483
52.4985	0.00015542
52.6235	0.000152835
52.7485	0.000148178
52.8735	0.000148245
52.9985	0.000148901
53.1236	0.000145578
53.2486	0.000141689
53.3736	0.000142642
53.4986	0.000146934
53.6236	0.000143581
53.7486	0.000143387
53.8736	0.000143201
53.9986	0.000141487
54.1236	0.000145667
54.2486	0.000139334
54.3736	0.000139938
54.4986	0.00014037
54.6236	0.000139088
54.7486	0.000135631
54.8736	0.000138701
54.9986	0.000137233
55.1236	0.000134409
55.2478	0.000137486
55.3737	0.000134923
55.4987	0.000135922
55.6237	0.000132346
55.7487	0.000131593
55.8737	0.000129604
55.9987	0.000127018
56.1237	0.000130557
56.2487	0.000128211
56.3737	0.00012789
56.4987	0.00012681
56.6237	0.000125707
56.7487	0.000120663
56.8737	0.000119448
56.9987	0.000120976
57.1237	0.000119009
57.2487	0.000117101
57.3737	0.000116297
57.4987	0.00011611
57.6238	0.000113033
57.7488	0.000113555
57.8738	0.000112445
57.9988	0.000111744
58.1238	0.000114091
58.2488	0.000110299
58.3738	0.000110709
58.4988	0.000111364
58.6238	0.000113555
58.7488	0.000112832
58.8738	0.000116207
58.9988	0.000116177
59.1238	0.000108935
59.2488	0.000110135
59.3738	0.000108742
59.4988	0.000105292
59.6238	0.000103392
59.7489	0.00010527
59.8739	0.000102789
59.9989	9.99E-05
60.1239	0.000101023
60.2489	0.000100025
60.3739	0.000100784
60.4989	9.95E-05
60.6239	9.58E-05
60.7489	9.84E-05
60.8739	9.06E-05
60.9989	9.32E-05
61.1239	9.21E-05
61.2489	9.44E-05
61.3739	9.14E-05
61.4989	9.19E-05
61.6239	9.31E-05
61.7489	9.69E-05
61.874	9.19E-05
61.999	9.04E-05
62.124	8.83E-05
62.249	8.85E-05
62.374	8.48E-05
62.499	8.41E-05
62.624	8.07E-05
62.749	8.16E-05
62.874	8.05E-05
62.999	8.26E-05
63.124	7.95E-05
63.249	8.19E-05
63.374	8.07E-05
63.499	8.21E-05
63.624	8.35E-05
63.749	8.07E-05
63.874	8.23E-05
63.999	7.59E-05
64.1241	8.04E-05
64.2491	7.60E-05
64.3741	7.23E-05
64.4991	7.65E-05
64.6241	7.30E-05
64.7491	7.27E-05
64.8741	7.32E-05
64.9991	7.25E-05
65.1232	7.04E-05
65.2491	6.84E-05
65.3741	6.90E-05
65.4991	6.60E-05
65.6241	6.62E-05
65.7491	6.95E-05
65.8741	6.94E-05
65.9991	6.39E-05
66.1241	6.65E-05
66.2492	6.76E-05
66.3742	6.33E-05
66.4992	6.19E-05
66.6242	6.30E-05
66.7492	6.44E-05
66.8742	6.30E-05
66.9992	6.22E-05
67.1242	6.10E-05
67.2492	6.17E-05
67.3742	6.02E-05
67.4992	6.18E-05
67.6242	6.01E-05
67.7492	6.31E-05
67.8742	5.86E-05
67.9992	5.78E-05
68.1242	5.92E-05
68.2492	5.81E-05
68.3742	5.94E-05
68.4993	5.55E-05
68.6243	5.24E-05
68.7493	5.32E-05
68.8743	5.15E-05
68.9993	5.37E-05
69.1243	5.20E-05
69.2493	5.18E-05
69.3742	5.28E-05
69.4992	5.38E-05
69.6243	5.14E-05
69.7493	5.82E-05
69.8739	5.12E-05
69.9993	5.07E-05
70.1243	5.04E-05
70.2493	5.00E-05
70.3743	5.09E-05
70.4993	5.01E-05
70.6244	5.06E-05
70.7494	4.91E-05
70.8744	5.15E-05
70.9994	4.81E-05
71.1244	4.91E-05
71.2494	4.66E-05
71.3744	4.83E-05
71.4994	4.63E-05
71.6244	4.79E-05
71.7494	4.28E-05
71.8744	4.44E-05
71.9994	4.67E-05
72.1244	4.62E-05
72.2494	4.38E-05
72.3744	4.65E-05
72.4994	4.62E-05
72.6244	4.40E-05
72.7494	4.40E-05
72.8745	4.12E-05
72.9992	4.36E-05
73.1245	4.38E-05
73.2495	4.31E-05
73.3745	4.53E-05
73.4995	4.39E-05
73.6245	4.22E-05
73.7495	3.76E-05
73.8745	3.97E-05
73.9995	4.17E-05
74.1245	3.78E-05
74.2495	4.00E-05
74.3745	3.98E-05
74.4995	3.83E-05
74.6245	3.69E-05
74.7495	3.45E-05
74.8745	3.71E-05
74.9995	3.60E-05
75.1246	3.73E-05
75.2496	3.45E-05
75.3746	3.58E-05
75.4996	3.57E-05
75.6246	3.51E-05
75.7496	3.91E-05
75.8746	3.47E-05
75.9996	3.33E-05
76.1246	3.26E-05
76.2496	3.54E-05
76.3746	3.20E-05
76.4996	3.56E-05
76.6246	3.39E-05
76.7496	3.44E-05
76.8746	3.89E-05
76.9996	3.71E-05
77.1246	3.51E-05
77.2496	3.55E-05
77.3747	3.21E-05
77.4997	3.24E-05
77.6247	3.53E-05
77.7497	3.26E-05
77.8747	3.03E-05
77.9997	3.48E-05
78.1247	3.50E-05
78.2497	3.00E-05
78.3747	3.45E-05
78.4997	3.19E-05
78.6247	3.02E-05
78.7497	3.25E-05
78.8747	3.18E-05
78.9997	3.12E-05
79.1247	3.19E-05
79.2497	2.96E-05
79.3747	3.12E-05
79.4998	2.79E-05
79.6248	2.79E-05
79.7493	2.62E-05
79.8743	2.89E-05
79.9998	2.77E-05
80.1248	2.82E-05
80.2498	2.86E-05
80.3748	2.84E-05
80.4998	2.91E-05
80.6248	3.05E-05
80.7498	2.65E-05
80.8748	2.66E-05
80.9998	2.70E-05
81.1248	2.65E-05
81.2498	2.53E-05
81.3748	2.52E-05
81.4998	2.55E-05
81.6248	2.48E-05
81.7495	2.85E-05
81.8749	2.61E-05
81.9999	2.74E-05
82.1249	2.45E-05
82.2499	2.31E-05
82.3749	2.38E-05
82.4999	2.29E-05
82.6249	2.30E-05
82.7499	2.46E-05
82.8749	2.50E-05
82.9999	2.03E-05
83.1249	2.40E-05
83.2499	2.36E-05
83.3749	2.57E-05
83.4999	2.12E-05
83.6249	2.36E-05
83.7499	2.11E-05
83.875	2.00E-05
84	2.15E-05
84.125	2.12E-05
84.25	2.24E-05
84.375	1.97E-05
84.5	2.15E-05
84.625	2.04E-05
84.75	1.95E-05
84.875	1.86E-05
85	2.16E-05
85	2.22E-05
-0.00386047	0.000101649
0.12114	0.000100516
0.246155	0.000102632
0.371155	0.000100829
0.49617	9.89E-05
0.62117	0.000102334
0.74617	1.00E-04
0.871185	9.98E-05
0.996185	0.000102602
1.12119	9.96E-05
1.2462	0.000101358
1.3712	9.69E-05
1.4962	9.84E-05
1.62042	9.85E-05
1.74622	0.000101485
1.87122	9.70E-05
1.99623	9.59E-05
2.12123	9.95E-05
2.24625	0.000100255
2.37125	9.77E-05
2.49625	9.93E-05
2.62126	9.62E-05
2.74626	9.89E-05
2.87126	9.62E-05
2.99628	0.000101746
3.12128	9.65E-05
3.24628	0.000100002
3.37129	9.95E-05
3.49597	0.000101522
3.62131	9.73E-05
3.74631	0.0001029
3.87131	9.77E-05
3.99632	9.96E-05
4.12132	9.85E-05
4.24632	9.75E-05
4.37134	9.68E-05
4.49634	9.83E-05
4.62134	9.72E-05
4.74635	9.78E-05
4.87135	9.80E-05
4.99635	9.73E-05
5.12137	9.66E-05
5.24637	9.61E-05
5.37138	9.51E-05
5.49638	9.76E-05
5.62138	9.87E-05
5.7464	9.87E-05
5.8714	9.99E-05
5.9964	9.72E-05
6.12141	9.78E-05
6.24641	9.67E-05
6.37143	9.71E-05
6.49643	9.56E-05
6.62143	9.76E-05
6.74644	0.000101336
6.87144	9.92E-05
6.99646	9.79E-05
7.12147	9.82E-05
7.24647	9.85E-05
7.37147	9.72E-05
7.49648	9.72E-05
7.62137	9.75E-05
7.74648	9.63E-05
7.8715	9.78E-05
7.9965	9.34E-05
8.1215	9.92E-05
8.24651	9.69E-05
8.37151	9.88E-05
8.49653	9.74E-05
8.62153	9.88E-05
8.74653	9.95E-05
8.87154	9.77E-05
8.99654	0.000100337
9.12155	9.62E-05
9.24656	9.71E-05
9.37156	9.54E-05
9.49657	9.53E-05
9.62157	9.92E-05
9.74658	9.72E-05
9.87159	9.71E-05
9.99659	9.56E-05
10.1216	9.84E-05
10.2455	9.82E-05
10.3703	9.65E-05
10.4956	9.91E-05
10.6216	9.72E-05
10.7466	9.88E-05
10.8716	9.76E-05
10.9966	9.50E-05
11.1216	9.58E-05
11.2466	9.57E-05
11.3717	9.54E-05
11.4967	9.79E-05
11.6217	9.44E-05
11.7467	9.52E-05
11.8717	9.75E-05
11.9967	9.47E-05
12.1217	9.42E-05
12.2467	9.86E-05
12.3717	9.53E-05
12.4967	9.94E-05
12.6217	9.95E-05
12.7467	9.41E-05
12.8717	9.84E-05
12.9967	9.91E-05
13.1217	9.66E-05
13.2467	9.66E-05
13.3717	9.50E-05
13.4967	0.000101343
13.6217	9.73E-05
13.7468	9.88E-05
13.8718	9.76E-05
13.9968	9.61E-05
14.1218	9.79E-05
14.2468	9.88E-05
14.3718	9.98E-05
14.4968	9.68E-05
14.6218	9.60E-05
14.7468	9.73E-05
14.8718	9.75E-05
14.9968	9.87E-05
15.1218	9.51E-05
15.2457	9.71E-05
15.3718	9.82E-05
15.4968	9.43E-05
15.6218	9.75E-05
15.7468	9.81E-05
15.8719	9.68E-05
15.9969	9.65E-05
16.1219	9.59E-05
16.2469	9.55E-05
16.3719	9.79E-05
16.4969	9.73E-05
16.6219	9.80E-05
16.7469	9.50E-05
16.8719	9.55E-05
16.9969	9.71E-05
17.1219	9.98E-05
17.2469	9.68E-05
17.3719	0.000100241
17.4969	9.96E-05
17.6219	9.46E-05
17.7469	9.57E-05
17.872	9.97E-05
17.997	9.87E-05
18.122	9.72E-05
18.247	9.76E-05
18.372	9.84E-05
18.497	9.67E-05
18.622	9.89E-05
18.747	9.97E-05
18.872	0.000100427
18.997	9.92E-05
19.122	9.61E-05
19.247	9.83E-05
19.372	9.93E-05
19.497	9.99E-05
19.622	9.72E-05
19.747	9.78E-05
19.872	9.76E-05
19.997	9.88E-05
20.1221	9.63E-05
20.2471	9.99E-05
20.3721	9.76E-05
20.4971	9.94E-05
20.6221	9.57E-05
20.7471	9.94E-05
20.8721	9.78E-05
20.9971	9.93E-05
21.1221	0.0001015
21.2471	0.000100732
21.3721	0.000100121
21.4971	0.00010214
21.6221	0.00010214
21.7471	0.000103072
21.8716	9.85E-05
21.9965	0.000100956
22.1211	0.000100412
22.2471	0.000100688
22.3722	0.000100099
22.4972	9.86E-05
22.6222	0.00010214
22.7472	9.96E-05
22.8722	0.000100993
22.9972	9.85E-05
23.1222	0.000100062
23.2472	0.000100829
23.3722	9.86E-05
23.4972	9.80E-05
23.6222	9.97E-05
23.7472	9.88E-05
23.8722	9.98E-05
23.9972	9.90E-05
24.1222	0.00010331
24.2472	0.000102319
24.3722	9.90E-05
24.4969	0.000100323
24.6216	0.000105113
24.7465	0.000100375
24.8709	9.89E-05
24.9957	9.95E-05
25.1223	0.000100226
25.2473	0.000100255
25.3723	0.000102737
25.4973	0.000100695
25.6223	0.000102856
25.7473	9.85E-05
25.8723	0.000101299
25.9973	0.000100516
26.1223	9.98E-05
26.2473	0.000101462
26.3723	0.00010176
26.4973	0.000103213
26.6224	0.000102632
26.7474	0.000102573
26.8724	0.000101284
26.9974	0.00010153
27.1224	9.98E-05
27.2474	0.000103616
27.3724	0.000101127
27.4974	0.000101448
27.6224	0.00010191
27.7474	0.000103057
27.8724	0.000103996
27.9974	0.000101291
28.1224	0.000103578
28.2474	0.000103891
28.3724	0.000104383
28.4974	0.000105151
28.6224	0.000104309
28.7474	0.00010337
28.8724	0.000104785
28.9975	0.000105851
29.1225	0.000108503
29.2475	0.000107363
29.3725	0.000107848
29.4975	0.00010553
29.6225	0.000106819
29.7466	0.000103236
29.8725	0.000105769
29.9975	0.000104562
30.1225	0.000106022
30.2475	0.000107632
30.3725	0.000108131
30.4975	0.000106909
30.6225	0.000108839
30.7475	0.000108861
30.8725	0.00010939
30.9975	0.0001098
31.1226	0.000112519
31.2476	0.000113875
31.3726	0.00011348
31.4976	0.000112594
31.6226	0.000114002
31.7476	0.000114277
31.8726	0.000110902
31.9976	0.000113361
32.1226	0.000113897
32.2476	0.000111238
32.3726	0.000116028
32.4976	0.000116438
32.6226	0.000117921
32.7476	0.000116446
32.8726	0.000113711
32.9976	0.000116937
33.1226	0.000117273
33.2477	0.000117608
33.3727	0.000117243
33.4977	0.000116006
33.6227	0.000116893
33.7477	0.000120163
33.8727	0.000119716
33.9977	0.000121654
34.1227	0.000122526
34.2477	0.000122459
34.3727	0.000124187
34.4977	0.000124351
34.6226	0.000128196
34.7477	0.000127108
34.8727	0.000122637
34.9977	0.000126936
35.1227	0.000128278
35.2471	0.000128151
35.3727	0.000128889
35.4977	0.000127406
35.6228	0.000126825
35.7478	0.000126698
35.8728	0.000131459
35.9978	0.000130535
36.1228	0.000126877
36.2478	0.000133798
36.3728	0.000131064
36.4978	0.000130341
36.6228	0.000130751
36.7478	0.000135408
36.8728	0.000133702
36.9978	0.000134588
37.1228	0.000130788
37.2478	0.000132308
37.3728	0.000133217
37.4978	0.000135564
37.6228	0.000136108
37.7479	0.000136093
37.8729	0.000138135
37.9979	0.000139051
38.1229	0.000139401
38.2479	0.000143454
38.3729	0.000141316
38.4979	0.000144982
38.6229	0.000145012
38.746	0.000143752
38.8729	0.000148789
38.9979	0.000149184
39.1229	0.000146979
39.2479	0.000150115
39.3729	0.000151121
39.4979	0.000147895
39.6229	0.00015241
39.7479	0.000152671
39.8729	0.00015799
39.998	0.000154228
40.123	0.000160218
40.248	0.000163601
40.373	0.000163035
40.498	0.000161246
40.623	0.000159704
40.748	0.000158281
40.873	0.000156381
40.998	0.000157
41.123	0.000157409
41.248	0.000160255
41.373	0.00016378
41.498	0.000163906
41.623	0.000165978
41.748	0.000168324
41.873	0.000163966
41.998	0.000161388
42.123	0.000163832
42.2481	0.000162707
42.3731	0.000171036
42.4981	0.000167274
42.6231	0.000168153
42.7481	0.000169353
42.8731	0.000168727
42.9981	0.000168846
43.1231	0.00016743
43.2481	0.000170038
43.3731	0.000168533
43.4981	0.000170485
